'File 10_2016Ò»ÔÂ27_1244.xls
'Part ID 10
'Scan Created 2016-1-27 12:44:59
'Instrument S1-00205
'Version 1.5.7
'Integration Time 10100 µs
'Number of Scans 50
'Units Absorbance
'Thermistor 40.33
Wavelength	Absorbance	Normalized	100%	dark	Raw 1	Native Wvl	Native Norm	Native 100%	Native dark	Native 1
908.10000	-2.84892	706.19212	3374.18868	3375.40339	2423.57411	906.26400	491.50000	3442.00000	3444.00000	2461.00000
914.29435	-2.85315	713.10413	3185.51697	3187.66666	2320.65079	912.45437	887.00000	3231.00000	3232.00000	2345.00000
920.48871	-2.06352	115.75000	3153.83950	3158.73787	2322.06645	918.64474	168.00000	3140.00000	3145.00000	2305.00000
926.68306	-2.50470	319.67158	3245.71853	3248.37362	2398.58579	924.83511	281.00000	3222.00000	3225.00000	2382.00000
932.87742	-2.43690	273.46207	3347.11849	3350.31829	2460.03167	931.02548	291.66667	3305.00000	3308.00000	2433.00000
939.07177	-2.31934	208.61190	3569.21500	3573.92864	2617.14650	937.21585	233.75000	3492.00000	3496.00000	2561.00000
945.26613	-2.25075	178.13683	3808.01150	3813.78889	2785.79750	943.40622	168.00000	3747.00000	3753.00000	2745.00000
951.46048	-2.50716	321.48241	3975.33779	3978.56387	2898.14420	949.59659	266.75000	3925.00000	3929.00000	2862.00000
957.65484	-2.50256	318.10028	4173.45998	4177.42580	3048.28181	955.78696	370.66667	4108.00000	4111.00000	2999.00000
963.84919	-2.35540	226.67077	4346.60860	4352.14708	3172.67916	961.97733	194.66667	4309.00000	4315.00000	3147.00000
970.04355	-2.64358	440.13098	4488.85036	4491.33061	3280.14508	968.16770	400.00000	4430.00000	4433.00000	3233.00000
976.23790	-2.56730	369.22892	4681.39071	4685.00585	3427.13302	974.35807	414.33333	4637.00000	4640.00000	3397.00000
982.43226	-2.36533	231.91371	4824.97664	4830.30002	3523.66715	980.54844	258.40000	4769.00000	4774.00000	3482.00000
988.62661	-2.52221	332.81812	5044.78557	5049.14418	3691.70916	986.73881	268.20000	4980.00000	4985.00000	3644.00000
994.82097	-2.66862	466.25242	5276.35425	5279.35048	3851.38010	992.92918	467.66667	5197.00000	5200.00000	3797.00000
1001.01532	-2.52114	331.99820	5533.10145	5537.59847	4036.77203	999.11955	370.75000	5462.00000	5466.00000	3983.00000
1007.20968	-2.52174	332.45937	5800.42541	5805.22003	4233.91044	1005.30992	308.60000	5703.00000	5708.00000	4165.00000
1013.40403	-2.63080	427.36440	6100.06762	6103.91265	4446.75681	1011.50029	409.50000	6025.00000	6029.00000	4391.00000
1019.59839	-2.60762	405.15325	6318.34269	6322.53020	4621.15075	1017.69066	421.50000	6243.00000	6247.00000	4561.00000
1025.79274	-2.50418	319.28783	6590.09348	6595.70940	4824.76997	1023.88103	349.40000	6508.00000	6513.00000	4766.00000
1031.98710	-2.39307	247.21010	6856.39546	6863.72132	5017.03368	1030.07140	260.71429	6771.00000	6778.00000	4953.00000
1038.18145	-2.49107	309.79281	7131.33234	7137.69228	5224.42778	1036.26177	270.28571	7049.00000	7056.00000	5164.00000
1044.37581	-2.59726	395.60721	7422.54165	7427.48745	5437.12754	1042.45214	393.00000	7323.00000	7328.00000	5363.00000
1050.57016	-2.49343	311.48143	7753.60670	7760.34346	5687.13316	1048.64251	341.33333	7655.00000	7661.00000	5613.00000
1056.76452	-2.41747	261.49762	8044.95645	8053.03573	5902.00611	1054.83288	265.87500	7956.00000	7964.00000	5837.00000
1062.95887	-2.57172	373.01282	8344.77495	8350.83811	6122.56613	1061.02325	314.85714	8247.00000	8254.00000	6050.00000
1069.15323	-2.62606	422.72675	8649.24482	8654.99124	6343.73385	1067.21362	456.80000	8559.00000	8564.00000	6280.00000
1075.34758	-2.45720	286.54837	8937.85128	8945.90866	6542.70540	1073.40399	296.75000	8843.00000	8851.00000	6477.00000
1081.54194	-2.71533	519.19415	9247.56598	9252.20326	6758.50368	1079.59436	411.00000	9152.00000	9158.00000	6692.00000
1087.73629	-2.73855	547.71182	9570.69311	9576.59718	6998.28976	1085.78473	638.00000	9462.00000	9466.00000	6914.00000
1093.93065	-2.24952	177.63064	9918.24000	9929.83707	7268.73418	1091.97510	239.54545	9813.00000	9824.00000	7189.00000
1100.12500	-2.65913	456.17101	10263.53096	10270.46266	7525.83076	1098.16547	302.00000	10147.00000	10156.00000	7438.00000
1106.31935	-2.81417	651.88251	10652.67119	10657.14925	7829.01783	1104.35584	700.50000	10530.00000	10534.00000	7732.00000
1112.51371	-2.58031	380.46449	11030.17335	11037.49408	8129.48877	1110.54621	411.85714	10911.00000	10918.00000	8035.00000
1118.70806	-2.61584	412.89390	11415.53081	11422.84855	8432.46647	1116.73658	423.28571	11290.00000	11297.00000	8334.00000
1124.90242	-2.62020	417.05838	11825.98417	11833.52157	8751.90446	1122.92695	381.50000	11693.00000	11701.00000	8649.00000
1131.09677	-2.72739	533.81919	12249.90190	12255.75491	9074.18068	1129.11732	524.66667	12114.00000	12120.00000	8972.00000
1137.29113	-2.61957	416.45810	12635.57805	12643.52749	9352.18503	1135.30769	465.14286	12522.00000	12529.00000	9273.00000
1143.48548	-2.61788	414.84351	13027.02284	13035.39725	9619.95075	1141.49806	374.66667	12885.00000	12894.00000	9522.00000
1149.67984	-2.67846	476.93630	13502.54716	13510.16114	9949.16384	1147.68843	502.00000	13354.00000	13361.00000	9847.00000
1155.87419	-2.54629	351.79774	13961.95475	13972.37745	10243.08009	1153.87880	366.90000	13809.00000	13819.00000	10150.00000
1162.06855	-2.60811	405.60983	14471.96322	14481.68877	10547.51126	1160.06917	386.80000	14303.00000	14313.00000	10445.00000
1168.26290	-2.68614	485.43967	14973.17165	14981.59714	10870.87640	1166.25954	451.11111	14819.00000	14828.00000	10768.00000
1174.45726	-2.70235	503.90683	15432.18175	15440.95064	11159.73039	1172.44991	527.25000	15282.00000	15290.00000	11072.00000
1180.65161	-2.56301	365.59938	15907.32325	15918.75818	11404.94241	1178.64028	403.18182	15752.00000	15763.00000	11328.00000
1186.84597	-2.81513	653.32339	16408.50651	16416.67456	11656.58803	1184.83065	468.00000	16240.00000	16250.00000	11570.00000
1193.04032	-2.97876	952.26850	16921.12190	16926.29826	11899.75980	1191.02102	986.80000	16759.00000	16764.00000	11830.00000
1199.23468	-2.74382	554.39077	17423.52159	17432.97346	12080.96728	1197.21139	654.87500	17254.00000	17262.00000	12023.00000
1205.42903	-2.73156	538.96721	17946.70689	17957.42904	12255.05065	1203.40176	508.27273	17779.00000	17790.00000	12199.00000
1211.62339	-2.85443	715.20552	18443.34552	18451.58580	12492.72837	1209.59213	654.88889	18281.00000	18290.00000	12396.00000
1217.81774	-2.84271	696.16923	18976.99658	18985.82782	12955.28961	1215.78250	753.37500	18792.00000	18800.00000	12773.00000
1224.01210	-2.62202	418.80879	19553.19521	19567.00153	13594.00190	1221.97287	499.83333	19367.00000	19379.00000	13381.00000
1230.20645	-2.67971	478.31073	20074.40776	20087.65077	14182.88762	1228.16324	394.86667	19910.00000	19925.00000	14002.00000
1236.40081	-2.81080	646.84027	20599.75229	20608.67123	14717.82539	1234.35361	654.22222	20415.00000	20424.00000	14536.00000
1242.59516	-2.71548	519.37328	21136.51670	21147.89719	15221.84283	1240.54398	537.45455	20973.00000	20984.00000	15072.00000
1248.78952	-2.73656	545.20957	21603.90046	21614.86055	15636.88903	1246.73435	541.72727	21444.00000	21455.00000	15496.00000
1254.98387	-2.75190	564.80042	22139.15349	22149.89524	16095.57342	1252.92472	547.72727	21953.00000	21964.00000	15939.00000
1261.17823	-2.79645	625.81396	22695.73308	22705.54949	16549.93318	1259.11509	612.10000	22516.00000	22526.00000	16405.00000
1267.37258	-2.78346	607.37998	23208.08047	23218.40789	16956.40299	1265.30546	622.60000	23039.00000	23049.00000	16823.00000
1273.56694	-2.75733	571.91403	23771.26894	23782.40498	17410.43101	1271.49583	575.90909	23568.00000	23579.00000	17244.00000
1279.76129	-2.77615	597.24309	24399.03484	24409.86762	17928.73441	1277.68620	585.90909	24194.00000	24205.00000	17760.00000
1285.95565	-2.75641	570.70634	24988.62671	25000.23619	18409.92387	1283.87657	595.72727	24791.00000	24802.00000	18249.00000
1292.15000	-2.70193	503.41649	25587.32745	25600.59759	18895.53373	1290.06694	512.76923	25384.00000	25397.00000	18731.00000
1298.34435	-2.73210	539.63738	26229.53882	26242.22441	19411.88229	1296.25731	522.00000	26005.00000	26018.00000	19232.00000
1304.53871	-2.77263	592.42021	26866.52561	26878.23672	19910.97159	1302.44769	576.75000	26664.00000	26676.00000	19755.00000
1310.73306	-2.74651	557.84060	27500.83127	27513.70993	20398.58251	1308.63806	588.50000	27268.00000	27280.00000	20218.00000
1316.92742	-2.66384	461.14339	28221.25348	28236.87291	20945.12672	1314.82843	481.93333	27983.00000	27998.00000	20769.00000
1323.12177	-2.74381	554.37928	28908.65323	28922.30898	21439.34589	1321.01880	494.53333	28673.00000	28688.00000	21270.00000
1329.31613	-2.77732	598.85529	29584.83896	29597.89480	21915.70599	1327.20917	634.33333	29362.00000	29374.00000	21762.00000
1335.51048	-2.68789	487.40001	30251.85634	30267.92031	22356.35106	1333.39954	489.31250	30016.00000	30032.00000	22203.00000
1341.70484	-2.80340	635.91537	30979.17453	30992.04882	22812.50585	1339.58991	577.42857	30729.00000	30743.00000	22659.00000
1347.89919	-2.83341	681.41217	31644.96003	31657.46099	23179.48409	1345.78028	697.75000	31434.00000	31446.00000	23073.00000
1354.09355	-2.78995	616.52084	32303.27279	32317.56198	23483.36252	1351.97065	621.50000	32056.00000	32070.00000	23369.00000
1360.28790	-2.82737	671.99625	33013.61293	33027.34561	23795.83796	1358.16102	650.00000	32789.00000	32803.00000	23703.00000
1366.48226	-2.88835	773.30476	33653.32965	33665.76426	24054.27116	1364.35139	729.00000	33421.00000	33434.00000	23957.00000
1372.67661	-2.90251	798.93580	34364.12606	34376.71400	24369.77112	1370.54176	822.75000	34122.00000	34134.00000	24261.00000
1378.87097	-2.86634	735.08605	34932.32005	34946.39324	24575.86442	1376.73213	732.07143	34768.00000	34782.00000	24533.00000
1385.06532	-2.94326	877.53517	35219.08586	35231.28825	24478.02346	1382.92250	816.23077	35148.00000	35161.00000	24550.00000
1391.25968	-2.93121	853.50543	35390.18732	35403.48011	24273.15124	1389.11287	918.00000	35325.00000	35337.00000	24321.00000
1397.45403	-2.77653	597.77108	35543.99544	35562.57653	24196.86966	1395.30324	664.41176	35505.00000	35522.00000	24227.00000
1403.64839	-2.84045	692.54879	35768.80188	35786.21995	24068.47650	1401.49361	607.89474	35649.00000	35668.00000	24118.00000
1409.84274	-2.95659	904.86859	36418.31461	36431.93038	23927.69203	1407.68398	870.14286	36142.00000	36156.00000	23974.00000
1416.03710	-2.93277	856.58065	37385.90813	37401.82445	23816.95255	1413.87435	879.60000	37031.00000	37046.00000	23852.00000
1422.23145	-2.93427	859.55460	38428.58785	38445.68904	23739.51346	1420.06472	842.23529	38063.00000	38080.00000	23762.00000
1428.42581	-2.96358	919.56391	39544.07874	39561.25033	23771.41702	1426.25509	906.70588	39135.00000	39152.00000	23738.00000
1434.62016	-2.95489	901.33380	40671.69006	40690.28132	23916.67051	1432.44546	913.88889	40299.00000	40317.00000	23867.00000
1440.81452	-2.98006	955.11481	41594.32772	41612.76693	24063.21174	1438.63583	910.52632	41287.00000	41306.00000	24006.00000
1447.00887	-3.03754	1090.29000	42596.69507	42613.39314	24363.20586	1444.82620	1058.41176	42203.00000	42220.00000	24227.00000
1453.20323	-3.03856	1092.84696	43650.83326	43668.19039	24720.16142	1451.01657	1101.11765	43323.00000	43340.00000	24621.00000
1459.39758	-3.03055	1072.88632	44526.92237	44545.14204	24976.86548	1457.20694	1074.61111	44196.00000	44214.00000	24871.00000
1465.59194	-3.06512	1161.76987	45579.93358	45597.38196	25340.61415	1463.39731	1111.44444	45197.00000	45215.00000	25209.00000
1471.78629	-3.07366	1184.83858	46586.64037	46604.36624	25671.28293	1469.58768	1217.94118	46252.00000	46269.00000	25564.00000
1477.98065	-3.06275	1155.45256	47438.66270	47457.24262	25951.10235	1475.77805	1121.68421	47143.00000	47162.00000	25850.00000
1484.17500	-3.06306	1156.27835	48345.37921	48364.62338	26345.24258	1481.96842	1213.38889	48002.00000	48020.00000	26179.00000
1490.36935	-3.00368	1008.51667	49195.50054	49217.56002	26813.18987	1488.15879	1013.40909	48935.00000	48957.00000	26662.00000
1496.56371	-3.08755	1223.35023	49879.75977	49898.34720	27262.22262	1494.34916	1127.75000	49617.00000	49637.00000	27082.00000
1502.75806	-3.12310	1327.69874	50591.13368	50608.25098	27799.34590	1500.53953	1339.00000	50359.00000	50376.00000	27613.00000
1508.95242	-3.04662	1113.31530	51253.94705	51274.60916	28374.82471	1506.72990	1203.47368	50995.00000	51014.00000	28148.00000
1515.14677	-2.99651	992.00512	51974.54788	51997.69275	28994.69297	1512.92027	998.52174	51732.00000	51755.00000	28789.00000
1521.34113	-3.03581	1085.95908	52689.45904	52710.74260	29587.60891	1519.11064	1048.86364	52409.00000	52431.00000	29356.00000
1527.53548	-3.03104	1074.07669	53401.95985	53423.66127	30165.53087	1525.30101	1105.33333	53179.00000	53200.00000	29988.00000
1533.72984	-3.01003	1023.37311	54002.35592	54025.24035	30601.23563	1531.49138	1015.30435	53765.00000	53788.00000	30436.00000
1539.92419	-3.03409	1081.65307	54685.66866	54707.52507	31059.34639	1537.68175	1071.31818	54449.00000	54471.00000	30902.00000
1546.11855	-3.03580	1085.92882	55305.50505	55327.45494	31490.13254	1543.87212	1080.63636	55080.00000	55102.00000	31328.00000
1552.31290	-3.02971	1070.79646	55885.78286	55908.17552	31939.20943	1550.06249	1087.68182	55687.00000	55709.00000	31780.00000
1558.50726	-3.02380	1056.33657	56504.22254	56527.04447	32431.82763	1556.25286	1045.26087	56254.00000	56277.00000	32236.00000
1564.70161	-3.04732	1115.10635	57069.58599	57091.25355	32894.08694	1562.44323	1099.00000	56912.00000	56934.00000	32756.00000
1570.89597	-3.02667	1063.33823	57488.91062	57511.77413	33264.86520	1568.63360	1100.77273	57305.00000	57327.00000	33110.00000
1577.09032	-3.01369	1032.03257	58027.63536	58051.16495	33721.12246	1574.82397	1012.87500	57847.00000	57871.00000	33562.00000
1583.28468	-3.10393	1270.36267	58482.60640	58501.75638	34136.67719	1581.01434	1159.57143	58312.00000	58333.00000	33982.00000
1589.47903	-3.09984	1258.45237	58842.89286	58862.56201	34527.23199	1587.20471	1353.66667	58742.00000	58760.00000	34394.00000
1595.67339	-3.02228	1052.65037	59142.35700	59165.23193	34961.78086	1593.39508	1054.43478	59005.00000	59028.00000	34776.00000
1601.86774	-3.06324	1156.75955	59546.69311	59567.43696	35567.10229	1599.58545	1147.42857	59411.00000	59432.00000	35336.00000
1608.06210	-3.06014	1148.53097	59850.53578	59871.13908	36210.94240	1605.77582	1133.00000	59743.00000	59764.00000	35971.00000
1614.25645	-3.05534	1135.89726	60141.62157	60162.15011	36897.27787	1611.96619	1170.90000	60034.00000	60054.00000	36636.00000
1620.45081	-3.00760	1017.64861	60323.44166	60345.81400	37532.25459	1618.15656	1044.81818	60284.00000	60306.00000	37320.00000
1626.64516	-3.01901	1044.73835	60434.45088	60455.88105	38088.12545	1624.34693	1023.86364	60374.00000	60396.00000	37871.00000
1632.83952	-3.00891	1020.73310	60655.34269	60676.87686	38680.19062	1630.53730	1053.66667	60575.00000	60596.00000	38469.00000
1639.03387	-3.01629	1038.22045	60690.27335	60711.22630	39094.00317	1636.72767	989.54545	60721.00000	60743.00000	38973.00000
1645.22823	-3.04129	1099.74923	60447.19563	60466.36236	39300.75564	1642.91804	1123.10526	60559.00000	60578.00000	39239.00000
1651.42258	-3.02771	1065.87235	59290.56521	59310.01446	38883.14333	1649.10841	1038.60000	59937.00000	59957.00000	39185.00000
1657.61694	-3.01345	1031.46152	56927.67157	56945.53657	37603.16046	1655.29878	1096.83333	57831.00000	57849.00000	38106.00000
1663.81129	-3.15754	1437.26372	55514.94678	55529.71715	36911.89321	1661.48915	1106.76471	55810.00000	55827.00000	37012.00000
1670.00565	-3.21725	1649.12075	53518.97388	53526.96388	35815.15210	1667.67952	1819.60000	54730.00000	54740.00000	36544.00000
1676.20000	-3.72604	5321.57058	49153.87125	49158.85501	33047.43869	1673.86989	2783.00000	50783.00000	50789.00000	34091.00000
0.00000	0.00000	0.00000	0.00000	0.00000	0.00000	1680.06026	7528.00000	46145.00000	46147.00000	31091.00000
0.00000	0.00000	0.00000	0.00000	0.00000	0.00000	1686.25063	-2204.66667	40818.00000	40812.00000	27584.00000
0.00000	0.00000	0.00000	0.00000	0.00000	0.00000	1692.44100	-2204.66667	40818.00000	40812.00000	27584.00000
