'File 11_2016Ò»ÔÂ27_1245.xls
'Part ID 11
'Scan Created 2016-1-27 12:45:00
'Instrument S1-00205
'Version 1.5.7
'Integration Time 10100 µs
'Number of Scans 50
'Units Absorbance
'Thermistor 40.33
Wavelength	Absorbance	Normalized	100%	dark	Raw 1	Native Wvl	Native Norm	Native 100%	Native dark	Native 1
908.10000	-2.85495	716.06620	3374.18868	3375.40339	2410.68631	906.26400	498.00000	3442.00000	3444.00000	2448.00000
914.29435	-2.85956	723.70417	3185.51697	3187.66666	2307.32248	912.45437	900.00000	3231.00000	3232.00000	2332.00000
920.48871	-2.07111	117.79051	3153.83950	3158.73787	2308.18990	918.64474	170.80000	3140.00000	3145.00000	2291.00000
926.68306	-2.51119	324.47814	3245.71853	3248.37362	2385.87467	924.83511	285.33333	3222.00000	3225.00000	2369.00000
932.87742	-2.44351	277.65670	3347.11849	3350.31829	2446.32533	931.02548	296.00000	3305.00000	3308.00000	2420.00000
939.07177	-2.32694	212.29479	3569.21500	3573.92864	2600.29002	937.21585	237.75000	3492.00000	3496.00000	2545.00000
945.26613	-2.25828	181.25101	3808.01150	3813.78889	2767.73113	943.40622	171.00000	3747.00000	3753.00000	2727.00000
951.46048	-2.51443	326.91449	3975.33779	3978.56387	2879.92473	949.59659	271.25000	3925.00000	3929.00000	2844.00000
957.65484	-2.50993	323.54402	4173.45998	4177.42580	3029.10516	955.78696	377.00000	4108.00000	4111.00000	2980.00000
963.84919	-2.36209	230.19297	4346.60860	4352.14708	3153.97451	961.97733	197.83333	4309.00000	4315.00000	3128.00000
970.04355	-2.65003	446.71008	4488.85036	4491.33061	3262.23900	968.16770	406.00000	4430.00000	4433.00000	3215.00000
976.23790	-2.57414	375.08965	4681.39071	4685.00585	3406.87951	974.35807	420.66667	4637.00000	4640.00000	3378.00000
982.43226	-2.37306	236.08292	4824.97664	4830.30002	3500.39835	980.54844	263.00000	4769.00000	4774.00000	3459.00000
988.62661	-2.52965	338.57330	5044.78557	5049.14418	3668.33007	986.73881	272.80000	4980.00000	4985.00000	3621.00000
994.82097	-2.67632	474.59617	5276.35425	5279.35048	3825.83320	992.92918	476.00000	5197.00000	5200.00000	3772.00000
1001.01532	-2.52919	338.21045	5533.10145	5537.59847	4008.61292	999.11955	377.50000	5462.00000	5466.00000	3956.00000
1007.20968	-2.53042	339.17058	5800.42541	5805.22003	4202.16219	1005.30992	314.80000	5703.00000	5708.00000	4134.00000
1013.40403	-2.63904	435.55309	6100.06762	6103.91265	4415.09886	1011.50029	417.50000	6025.00000	6029.00000	4359.00000
1019.59839	-2.61602	413.07071	6318.34269	6322.53020	4587.71490	1017.69066	429.50000	6243.00000	6247.00000	4529.00000
1025.79274	-2.51331	326.07112	6590.09348	6595.70940	4787.44554	1023.88103	356.80000	6508.00000	6513.00000	4729.00000
1031.98710	-2.40123	251.90029	6856.39546	6863.72132	4981.54666	1030.07140	265.85714	6771.00000	6778.00000	4917.00000
1038.18145	-2.50006	316.27161	7131.33234	7137.69228	5184.97138	1036.26177	275.57143	7049.00000	7056.00000	5127.00000
1044.37581	-2.60707	404.63917	7422.54165	7427.48745	5391.52445	1042.45214	402.00000	7323.00000	7328.00000	5318.00000
1050.57016	-2.50242	317.99224	7753.60670	7760.34346	5643.82032	1048.64251	348.66667	7655.00000	7661.00000	5569.00000
1056.76452	-2.42612	266.76005	8044.95645	8053.03573	5858.63719	1054.83288	271.25000	7956.00000	7964.00000	5794.00000
1062.95887	-2.58061	380.72421	8344.77495	8350.83811	6076.59989	1061.02325	321.28571	8247.00000	8254.00000	6005.00000
1069.15323	-2.63510	431.62210	8649.24482	8654.99124	6295.07589	1067.21362	466.40000	8559.00000	8564.00000	6232.00000
1075.34758	-2.46587	292.32755	8937.85128	8945.90866	6494.16669	1073.40399	302.87500	8843.00000	8851.00000	6428.00000
1081.54194	-2.72337	528.89840	9247.56598	9252.20326	6711.99258	1079.59436	418.83333	9152.00000	9158.00000	6645.00000
1087.73629	-2.74653	557.87170	9570.69311	9576.59718	6950.10027	1085.78473	649.75000	9462.00000	9466.00000	6867.00000
1093.93065	-2.25779	181.04702	9918.24000	9929.83707	7217.21415	1091.97510	244.18182	9813.00000	9824.00000	7138.00000
1100.12500	-2.66790	465.47630	10263.53096	10270.46266	7470.79020	1098.16547	307.88889	10147.00000	10156.00000	7385.00000
1106.31935	-2.82341	665.90470	10652.67119	10657.14925	7767.96698	1104.35584	715.50000	10530.00000	10534.00000	7672.00000
1112.51371	-2.58965	388.73068	11030.17335	11037.49408	8066.45673	1110.54621	420.71429	10911.00000	10918.00000	7973.00000
1118.70806	-2.62545	422.13003	11415.53081	11422.84855	8365.41414	1116.73658	432.71429	11290.00000	11297.00000	8268.00000
1124.90242	-2.63002	426.59642	11825.98417	11833.52157	8681.66493	1122.92695	390.12500	11693.00000	11701.00000	8580.00000
1131.09677	-2.73763	546.55189	12249.90190	12255.75491	8997.98379	1129.11732	537.00000	12114.00000	12120.00000	8898.00000
1137.29113	-2.62984	426.41841	12635.57805	12643.52749	9273.88606	1135.30769	476.42857	12522.00000	12529.00000	9194.00000
1143.48548	-2.62753	424.15755	13027.02284	13035.39725	9543.36047	1141.49806	383.11111	12885.00000	12894.00000	9446.00000
1149.67984	-2.68849	488.08358	13502.54716	13510.16114	9865.61499	1147.68843	513.57143	13354.00000	13361.00000	9766.00000
1155.87419	-2.55658	360.22934	13961.95475	13972.37745	10153.89766	1153.87880	375.70000	13809.00000	13819.00000	10062.00000
1162.06855	-2.61792	414.88050	14471.96322	14481.68877	10457.51625	1160.06917	395.80000	14303.00000	14313.00000	10355.00000
1168.26290	-2.69583	496.39362	14973.17165	14981.59714	10778.24068	1166.25954	461.22222	14819.00000	14828.00000	10677.00000
1174.45726	-2.71223	515.50350	15432.18175	15440.95064	11061.16982	1172.44991	539.37500	15282.00000	15290.00000	10975.00000
1180.65161	-2.57250	373.68283	15907.32325	15918.75818	11304.98151	1178.64028	412.27273	15752.00000	15763.00000	11228.00000
1186.84597	-2.82446	667.51348	16408.50651	16416.67456	11553.48425	1184.83065	478.10000	16240.00000	16250.00000	11469.00000
1193.04032	-2.98792	972.57099	16921.12190	16926.29826	11793.19441	1191.02102	1008.20000	16759.00000	16764.00000	11723.00000
1199.23468	-2.75212	565.08947	17423.52159	17432.97346	11976.75237	1197.21139	667.87500	17254.00000	17262.00000	11919.00000
1205.42903	-2.73975	549.22374	17946.70689	17957.42904	12146.75783	1203.40176	518.00000	17779.00000	17790.00000	12092.00000
1211.62339	-2.86242	728.48520	18443.34552	18451.58580	12382.22025	1209.59213	667.11111	18281.00000	18290.00000	12286.00000
1217.81774	-2.85094	709.48010	18976.99658	18985.82782	12839.52807	1215.78250	767.50000	18792.00000	18800.00000	12660.00000
1224.01210	-2.63077	427.33502	19553.19521	19567.00153	13472.51287	1221.97287	509.91667	19367.00000	19379.00000	13260.00000
1230.20645	-2.68885	488.47800	20074.40776	20087.65077	14058.45356	1228.16324	403.00000	19910.00000	19925.00000	13880.00000
1236.40081	-2.82044	661.36875	20599.75229	20608.67123	14584.99902	1234.35361	668.77778	20415.00000	20424.00000	14405.00000
1242.59516	-2.72541	531.38344	21136.51670	21147.89719	15085.07429	1240.54398	549.72727	20973.00000	20984.00000	14937.00000
1248.78952	-2.74679	558.19838	21603.90046	21614.86055	15494.37238	1246.73435	554.54545	21444.00000	21455.00000	15355.00000
1254.98387	-2.76212	578.25203	22139.15349	22149.89524	15951.36711	1252.92472	560.81818	21953.00000	21964.00000	15795.00000
1261.17823	-2.80680	640.91818	22695.73308	22705.54949	16401.35648	1259.11509	626.70000	22516.00000	22526.00000	16259.00000
1267.37258	-2.79409	622.42454	23208.08047	23218.40789	16801.36199	1265.30546	638.00000	23039.00000	23049.00000	16669.00000
1273.56694	-2.76794	586.05957	23771.26894	23782.40498	17252.79054	1271.49583	590.09091	23568.00000	23579.00000	17088.00000
1279.76129	-2.78698	612.31655	24399.03484	24409.86762	17765.18762	1277.68620	600.63636	24194.00000	24205.00000	17598.00000
1285.95565	-2.76732	585.22031	24988.62671	25000.23619	18242.25684	1283.87657	610.81818	24791.00000	24802.00000	18083.00000
1292.15000	-2.71294	516.33961	25587.32745	25600.59759	18723.41842	1290.06694	525.92308	25384.00000	25397.00000	18560.00000
1298.34435	-2.74327	553.69313	26229.53882	26242.22441	19234.03343	1296.25731	535.46154	26005.00000	26018.00000	19057.00000
1304.53871	-2.78407	608.22701	26866.52561	26878.23672	19725.01109	1302.44769	592.08333	26664.00000	26676.00000	19571.00000
1310.73306	-2.75789	572.65731	27500.83127	27513.70993	20209.66131	1308.63806	604.16667	27268.00000	27280.00000	20030.00000
1316.92742	-2.67513	473.29293	28221.25348	28236.87291	20752.89258	1314.82843	494.66667	27983.00000	27998.00000	20578.00000
1323.12177	-2.75521	569.13150	28908.65323	28922.30898	21240.33293	1321.01880	507.60000	28673.00000	28688.00000	21074.00000
1329.31613	-2.78875	614.82712	29584.83896	29597.89480	21711.13825	1327.20917	651.33333	29362.00000	29374.00000	21558.00000
1335.51048	-2.69895	499.98048	30251.85634	30267.92031	22151.77750	1333.39954	502.06250	30016.00000	30032.00000	21999.00000
1341.70484	-2.81445	652.29915	30979.17453	30992.04882	22601.87499	1339.58991	592.28571	30729.00000	30743.00000	22451.00000
1347.89919	-2.84445	698.96147	31644.96003	31657.46099	22961.15829	1345.78028	715.75000	31434.00000	31446.00000	22857.00000
1354.09355	-2.80069	631.95693	32303.27279	32317.56198	23262.04685	1351.97065	637.28571	32056.00000	32070.00000	23148.00000
1360.28790	-2.83776	688.27648	33013.61293	33027.34561	23572.34265	1358.16102	665.85714	32789.00000	32803.00000	23481.00000
1366.48226	-2.89852	791.63407	33653.32965	33665.76426	23826.24985	1364.35139	746.46154	33421.00000	33434.00000	23730.00000
1372.67661	-2.91238	817.29063	34364.12606	34376.71400	24140.02799	1370.54176	841.83333	34122.00000	34134.00000	24032.00000
1378.87097	-2.87601	751.64130	34932.32005	34946.39324	24342.36809	1376.73213	748.64286	34768.00000	34782.00000	24301.00000
1385.06532	-2.95261	896.62844	35219.08586	35231.28825	24243.78407	1382.92250	834.30769	35148.00000	35161.00000	24315.00000
1391.25968	-2.94016	871.28605	35390.18732	35403.48011	24041.39116	1389.11287	937.33333	35325.00000	35337.00000	24089.00000
1397.45403	-2.78530	609.95779	35543.99544	35562.57653	23965.39589	1395.30324	678.05882	35505.00000	35522.00000	23995.00000
1403.64839	-2.84886	706.09423	35768.80188	35786.21995	23838.77317	1401.49361	620.00000	35649.00000	35668.00000	23888.00000
1409.84274	-2.96452	921.56168	36418.31461	36431.93038	23697.38083	1407.68398	886.57143	36142.00000	36156.00000	23744.00000
1416.03710	-2.94010	871.16839	37385.90813	37401.82445	23585.53114	1413.87435	895.00000	37031.00000	37046.00000	23621.00000
1422.23145	-2.94107	873.11418	38428.58785	38445.68904	23507.41444	1420.06472	855.88235	38063.00000	38080.00000	23530.00000
1428.42581	-2.96998	933.21671	39544.07874	39561.25033	23537.00354	1426.25509	920.41176	39135.00000	39152.00000	23505.00000
1434.62016	-2.96099	914.09269	40671.69006	40690.28132	23679.35897	1432.44546	927.05556	40299.00000	40317.00000	23630.00000
1440.81452	-2.98589	968.02392	41594.32772	41612.76693	23825.87847	1438.63583	923.00000	41287.00000	41306.00000	23769.00000
1447.00887	-3.04322	1104.64884	42596.69507	42613.39314	24122.94929	1444.82620	1072.47059	42203.00000	42220.00000	23988.00000
1453.20323	-3.04419	1107.09765	43650.83326	43668.19039	24472.99269	1451.01657	1115.47059	43323.00000	43340.00000	24377.00000
1459.39758	-3.03612	1086.73434	44526.92237	44545.14204	24724.38555	1457.20694	1088.61111	44196.00000	44214.00000	24619.00000
1465.59194	-3.07051	1176.27045	45579.93358	45597.38196	25087.68675	1463.39731	1125.44444	45197.00000	45215.00000	24957.00000
1471.78629	-3.07897	1199.41345	46586.64037	46604.36624	25413.93038	1469.58768	1233.00000	46252.00000	46269.00000	25308.00000
1477.98065	-3.06796	1169.40267	47438.66270	47457.24262	25691.31610	1475.77805	1135.31579	47143.00000	47162.00000	25591.00000
1484.17500	-3.06824	1170.14450	48345.37921	48364.62338	26081.19843	1481.96842	1227.94444	48002.00000	48020.00000	25917.00000
1490.36935	-3.00888	1020.65097	49195.50054	49217.56002	26543.61047	1488.15879	1025.59091	48935.00000	48957.00000	26394.00000
1496.56371	-3.09277	1238.14602	49879.75977	49898.34720	26988.50067	1494.34916	1141.35000	49617.00000	49637.00000	26810.00000
1502.75806	-3.12837	1343.90850	50591.13368	50608.25098	27520.86172	1500.53953	1355.29412	50359.00000	50376.00000	27336.00000
1508.95242	-3.05195	1127.05963	51253.94705	51274.60916	28092.05401	1506.72990	1218.26316	50995.00000	51014.00000	27867.00000
1515.14677	-3.00196	1004.51500	51974.54788	51997.69275	28704.71265	1512.92027	1011.00000	51732.00000	51755.00000	28502.00000
1521.34113	-3.04136	1099.90484	52689.45904	52710.74260	29290.65161	1519.11064	1062.27273	52409.00000	52431.00000	29061.00000
1527.53548	-3.03664	1088.03310	53401.95985	53423.66127	29863.22360	1525.30101	1119.61905	53179.00000	53200.00000	29688.00000
1533.72984	-3.01574	1036.89651	54002.35592	54025.24035	30291.78574	1531.49138	1028.65217	53765.00000	53788.00000	30129.00000
1539.92419	-3.03983	1096.03882	54685.66866	54707.52507	30744.79219	1537.68175	1085.54545	54449.00000	54471.00000	30589.00000
1546.11855	-3.04157	1100.43987	55305.50505	55327.45494	31171.62544	1543.87212	1095.04545	55080.00000	55102.00000	31011.00000
1552.31290	-3.03550	1085.18570	55885.78286	55908.17552	31617.08315	1550.06249	1102.27273	55687.00000	55709.00000	31459.00000
1558.50726	-3.02967	1070.71709	56504.22254	56527.04447	32103.87158	1556.25286	1059.39130	56254.00000	56277.00000	31911.00000
1564.70161	-3.05332	1130.62463	57069.58599	57091.25355	32557.27763	1562.44323	1114.18182	56912.00000	56934.00000	32422.00000
1570.89597	-3.03269	1078.18457	57488.91062	57511.77413	32926.43768	1568.63360	1116.18182	57305.00000	57327.00000	32771.00000
1577.09032	-3.01972	1046.46190	58027.63536	58051.16495	33380.92706	1574.82397	1026.95833	57847.00000	57871.00000	33224.00000
1583.28468	-3.11010	1288.53741	58482.60640	58501.75638	33788.16275	1581.01434	1176.04762	58312.00000	58333.00000	33636.00000
1589.47903	-3.10607	1276.63696	58842.89286	58862.56201	34175.39635	1587.20471	1373.16667	58742.00000	58760.00000	34043.00000
1595.67339	-3.02859	1068.05379	59142.35700	59165.23193	34607.89102	1593.39508	1069.78261	59005.00000	59028.00000	34423.00000
1601.86774	-3.06971	1174.10399	59546.69311	59567.43696	35206.90536	1599.58545	1164.42857	59411.00000	59432.00000	34979.00000
1608.06210	-3.06686	1166.42704	59850.53578	59871.13908	35842.60169	1605.77582	1150.42857	59743.00000	59764.00000	35605.00000
1614.25645	-3.06228	1154.19750	60141.62157	60162.15011	36522.14341	1611.96619	1189.50000	60034.00000	60054.00000	36264.00000
1620.45081	-3.01484	1034.77036	60323.44166	60345.81400	37148.55577	1618.15656	1062.13636	60284.00000	60306.00000	36939.00000
1626.64516	-3.02649	1062.89702	60434.45088	60455.88105	37699.51504	1624.34693	1041.45455	60374.00000	60396.00000	37484.00000
1632.83952	-3.01663	1039.03735	60655.34269	60676.87686	38285.28700	1630.53730	1072.33333	60575.00000	60596.00000	38077.00000
1639.03387	-3.02430	1057.55845	60690.27335	60711.22630	38691.89064	1636.72767	1007.72727	60721.00000	60743.00000	38573.00000
1645.22823	-3.04945	1120.59697	60447.19563	60466.36236	38899.06089	1642.91804	1144.31579	60559.00000	60578.00000	38836.00000
1651.42258	-3.03606	1086.56572	59290.56521	59310.01446	38487.31121	1649.10841	1058.50000	59937.00000	59957.00000	38787.00000
1657.61694	-3.02203	1052.03061	56927.67157	56945.53657	37216.64209	1655.29878	1118.55556	57831.00000	57849.00000	37715.00000
1663.81129	-3.16624	1466.35997	55514.94678	55529.71715	36535.82813	1661.48915	1129.05882	55810.00000	55827.00000	36633.00000
1670.00565	-3.22603	1682.80091	53518.97388	53526.96388	35452.20030	1667.67952	1856.60000	54730.00000	54740.00000	36174.00000
1676.20000	-3.73500	5432.45579	49153.87125	49158.85501	32711.11732	1673.86989	2840.83333	50783.00000	50789.00000	33744.00000
0.00000	0.00000	0.00000	0.00000	0.00000	0.00000	1680.06026	7685.00000	46145.00000	46147.00000	30777.00000
0.00000	0.00000	0.00000	0.00000	0.00000	0.00000	1686.25063	-2250.00000	40818.00000	40812.00000	27312.00000
0.00000	0.00000	0.00000	0.00000	0.00000	0.00000	1692.44100	-2250.00000	40818.00000	40812.00000	27312.00000
