'File 12_2016Ò»ÔÂ27_1245.xls
'Part ID 12
'Scan Created 2016-1-27 12:45:02
'Instrument S1-00205
'Version 1.5.7
'Integration Time 10100 µs
'Number of Scans 50
'Units Absorbance
'Thermistor 40.33
Wavelength	Absorbance	Normalized	100%	dark	Raw 1	Native Wvl	Native Norm	Native 100%	Native dark	Native 1
908.10000	-3.26828	1854.74216	3374.18868	3375.40339	889.23969	906.26400	1276.50000	3442.00000	3444.00000	891.00000
914.29435	-3.27729	1893.61229	3185.51697	3187.66666	874.80839	912.45437	2351.00000	3231.00000	3232.00000	881.00000
920.48871	-2.50606	320.67464	3153.83950	3158.73787	883.09170	918.64474	454.60000	3140.00000	3145.00000	872.00000
926.68306	-2.94357	878.14709	3245.71853	3248.37362	907.26210	924.83511	771.66667	3222.00000	3225.00000	910.00000
932.87742	-2.88142	761.06910	3347.11849	3350.31829	875.58025	931.02548	808.66667	3305.00000	3308.00000	882.00000
939.07177	-2.76722	585.07996	3569.21500	3573.92864	888.42797	937.21585	654.00000	3492.00000	3496.00000	880.00000
945.26613	-2.70396	505.77283	3808.01150	3813.78889	895.10173	943.40622	475.33333	3747.00000	3753.00000	901.00000
951.46048	-2.96577	924.19948	3975.33779	3978.56387	875.33205	949.59659	763.50000	3925.00000	3929.00000	875.00000
957.65484	-2.96511	922.81483	4173.45998	4177.42580	896.54109	955.78696	1073.33333	4108.00000	4111.00000	891.00000
963.84919	-2.82399	666.79678	4346.60860	4352.14708	889.34815	961.97733	569.83333	4309.00000	4315.00000	896.00000
970.04355	-3.11562	1305.02952	4488.85036	4491.33061	898.11307	968.16770	1182.66667	4430.00000	4433.00000	885.00000
976.23790	-3.04400	1106.62720	4681.39071	4685.00585	915.83927	974.35807	1238.33333	4637.00000	4640.00000	925.00000
982.43226	-2.84540	700.48690	4824.97664	4830.30002	881.85474	980.54844	778.60000	4769.00000	4774.00000	881.00000
988.62661	-3.00702	1016.29071	5044.78557	5049.14418	906.45230	986.73881	816.20000	4980.00000	4985.00000	904.00000
994.82097	-3.15606	1432.39157	5276.35425	5279.35048	891.35329	992.92918	1434.66667	5197.00000	5200.00000	896.00000
1001.01532	-3.01140	1026.60709	5533.10145	5537.59847	896.61481	999.11955	1143.75000	5462.00000	5466.00000	891.00000
1007.20968	-3.01567	1036.72916	5800.42541	5805.22003	905.96522	1005.30992	960.00000	5703.00000	5708.00000	908.00000
1013.40403	-3.12787	1342.35986	6100.06762	6103.91265	898.72087	1011.50029	1283.00000	6025.00000	6029.00000	897.00000
1019.59839	-3.10940	1286.45733	6318.34269	6322.53020	919.51449	1017.69066	1333.50000	6243.00000	6247.00000	913.00000
1025.79274	-3.01017	1023.69451	6590.09348	6595.70940	919.06418	1023.88103	1117.80000	6508.00000	6513.00000	924.00000
1031.98710	-2.90143	796.95222	6856.39546	6863.72132	908.12578	1030.07140	838.71429	6771.00000	6778.00000	907.00000
1038.18145	-3.00407	1009.42358	7131.33234	7137.69228	906.21693	1036.26177	877.71429	7049.00000	7056.00000	912.00000
1044.37581	-3.11332	1298.13022	7422.54165	7427.48745	894.78356	1042.45214	1287.20000	7323.00000	7328.00000	892.00000
1050.57016	-3.01213	1028.33321	7753.60670	7760.34346	916.57832	1048.64251	1124.83333	7655.00000	7661.00000	912.00000
1056.76452	-2.93846	867.88739	8044.95645	8053.03573	912.83149	1054.83288	881.00000	7956.00000	7964.00000	916.00000
1062.95887	-3.09521	1245.12037	8344.77495	8350.83811	914.21951	1061.02325	1049.14286	8247.00000	8254.00000	910.00000
1069.15323	-3.15055	1414.34116	8649.24482	8654.99124	922.31551	1067.21362	1528.00000	8559.00000	8564.00000	924.00000
1075.34758	-2.98109	957.39374	8937.85128	8945.90866	914.43291	1073.40399	992.12500	8843.00000	8851.00000	914.00000
1081.54194	-3.23936	1735.24269	9247.56598	9252.20326	920.42899	1079.59436	1373.00000	9152.00000	9158.00000	920.00000
1087.73629	-3.26356	1834.68678	9570.69311	9576.59718	935.85024	1085.78473	2135.00000	9462.00000	9466.00000	926.00000
1093.93065	-2.77773	599.41346	9918.24000	9929.83707	948.30606	1091.97510	806.45455	9813.00000	9824.00000	953.00000
1100.12500	-3.19185	1555.41688	10263.53096	10270.46266	923.53514	1098.16547	1025.44444	10147.00000	10156.00000	927.00000
1106.31935	-3.35003	2238.85024	10652.67119	10657.14925	932.44098	1104.35584	2401.25000	10530.00000	10534.00000	929.00000
1112.51371	-3.12197	1324.24031	11030.17335	11037.49408	933.07042	1110.54621	1426.14286	10911.00000	10918.00000	935.00000
1118.70806	-3.16037	1446.65654	11415.53081	11422.84855	935.15451	1116.73658	1480.85714	11290.00000	11297.00000	931.00000
1124.90242	-3.16846	1473.87660	11825.98417	11833.52157	951.03226	1122.92695	1344.12500	11693.00000	11701.00000	948.00000
1131.09677	-3.27781	1895.88573	12249.90190	12255.75491	951.96734	1129.11732	1861.33333	12114.00000	12120.00000	952.00000
1137.29113	-3.17068	1481.43425	12635.57805	12643.52749	940.32751	1135.30769	1654.57143	12522.00000	12529.00000	947.00000
1143.48548	-3.16689	1468.55486	13027.02284	13035.39725	938.21369	1141.49806	1329.11111	12885.00000	12894.00000	932.00000
1149.67984	-3.22547	1680.61826	13502.54716	13510.16114	967.74703	1147.68843	1771.42857	13354.00000	13361.00000	961.00000
1155.87419	-3.08868	1226.52997	13961.95475	13972.37745	962.71371	1153.87880	1285.10000	13809.00000	13819.00000	968.00000
1162.06855	-3.14452	1394.82089	14471.96322	14481.68877	956.85959	1160.06917	1335.90000	14303.00000	14313.00000	954.00000
1168.26290	-3.21839	1653.43619	14973.17165	14981.59714	978.51464	1166.25954	1539.55556	14819.00000	14828.00000	972.00000
1174.45726	-3.23083	1701.48622	15432.18175	15440.95064	983.98304	1172.44991	1788.12500	15282.00000	15290.00000	985.00000
1180.65161	-3.08400	1213.39651	15907.32325	15918.75818	968.90963	1178.64028	1344.36364	15752.00000	15763.00000	975.00000
1186.84597	-3.32527	2114.79569	16408.50651	16416.67456	967.48450	1184.83065	1528.70000	16240.00000	16250.00000	963.00000
1193.04032	-3.48087	3026.02397	16921.12190	16926.29826	987.67504	1191.02102	3156.20000	16759.00000	16764.00000	983.00000
1199.23468	-3.23040	1699.79469	17423.52159	17432.97346	993.84741	1197.21139	2033.75000	17254.00000	17262.00000	992.00000
1205.42903	-3.20502	1603.31664	17946.70689	17957.42904	992.66166	1203.40176	1526.81818	17779.00000	17790.00000	995.00000
1211.62339	-3.32160	2096.99975	18443.34552	18451.58580	991.65081	1209.59213	1922.33333	18281.00000	18290.00000	989.00000
1217.81774	-3.31681	2073.99898	18976.99658	18985.82782	1005.96267	1215.78250	2224.75000	18792.00000	18800.00000	1002.00000
1224.01210	-3.11373	1299.36743	19553.19521	19567.00153	1012.82453	1221.97287	1530.66667	19367.00000	19379.00000	1011.00000
1230.20645	-3.19024	1549.68109	20074.40776	20087.65077	1012.85094	1228.16324	1260.73333	19910.00000	19925.00000	1014.00000
1236.40081	-3.33163	2145.97768	20599.75229	20608.67123	1026.44978	1234.35361	2156.33333	20415.00000	20424.00000	1017.00000
1242.59516	-3.24681	1765.28521	21136.51670	21147.89719	1033.15675	1240.54398	1813.09091	20973.00000	20984.00000	1040.00000
1248.78952	-3.27364	1877.77578	21603.90046	21614.86055	1014.03285	1246.73435	1858.36364	21444.00000	21455.00000	1013.00000
1254.98387	-3.29433	1969.36607	22139.15349	22149.89524	1044.85366	1252.92472	1902.72727	21953.00000	21964.00000	1034.00000
1261.17823	-3.34274	2201.60446	22695.73308	22705.54949	1048.48911	1259.11509	2147.20000	22516.00000	22526.00000	1054.00000
1267.37258	-3.33302	2152.86173	23208.08047	23218.40789	1022.68673	1265.30546	2202.00000	23039.00000	23049.00000	1029.00000
1273.56694	-3.30991	2041.30521	23771.26894	23782.40498	1039.08626	1271.49583	2050.18182	23568.00000	23579.00000	1027.00000
1279.76129	-3.33264	2151.01534	24399.03484	24409.86762	1069.69827	1277.68620	2103.63636	24194.00000	24205.00000	1065.00000
1285.95565	-3.31647	2072.39995	24988.62671	25000.23619	1065.34857	1283.87657	2157.72727	24791.00000	24802.00000	1067.00000
1292.15000	-3.26540	1842.44855	25587.32745	25600.59759	1063.54524	1290.06694	1871.76923	25384.00000	25397.00000	1064.00000
1298.34435	-3.29861	1988.86600	26229.53882	26242.22441	1067.81827	1296.25731	1919.46154	26005.00000	26018.00000	1065.00000
1304.53871	-3.34141	2194.86461	26866.52561	26878.23672	1066.06951	1302.44769	2133.83333	26664.00000	26676.00000	1070.00000
1310.73306	-3.31651	2072.57324	27500.83127	27513.70993	1076.39055	1308.63806	2184.58333	27268.00000	27280.00000	1065.00000
1316.92742	-3.23466	1716.57554	28221.25348	28236.87291	1096.71991	1314.82843	1793.26667	27983.00000	27998.00000	1099.00000
1323.12177	-3.31433	2062.21527	28908.65323	28922.30898	1082.49150	1321.01880	1840.40000	28673.00000	28688.00000	1082.00000
1329.31613	-3.34683	2222.43787	29584.83896	29597.89480	1095.49668	1327.20917	2356.75000	29362.00000	29374.00000	1093.00000
1335.51048	-3.25450	1796.79845	30251.85634	30267.92031	1097.70526	1333.39954	1808.50000	30016.00000	30032.00000	1096.00000
1341.70484	-3.36587	2322.03830	30979.17453	30992.04882	1117.18300	1339.58991	2116.78571	30729.00000	30743.00000	1108.00000
1347.89919	-3.39007	2455.11823	31644.96003	31657.46099	1125.64643	1345.78028	2526.41667	31434.00000	31446.00000	1129.00000
1354.09355	-3.33785	2176.97481	32303.27279	32317.56198	1109.20878	1351.97065	2211.28571	32056.00000	32070.00000	1112.00000
1360.28790	-3.36618	2323.68864	33013.61293	33027.34561	1117.06455	1358.16102	2263.57143	32789.00000	32803.00000	1113.00000
1366.48226	-3.41782	2617.10406	33653.32965	33665.76426	1123.20672	1364.35139	2485.46154	33421.00000	33434.00000	1123.00000
1372.67661	-3.42426	2656.22144	34364.12606	34376.71400	1120.99580	1370.54176	2751.08333	34122.00000	34134.00000	1121.00000
1378.87097	-3.37955	2396.33245	34932.32005	34946.39324	1138.77043	1376.73213	2403.78571	34768.00000	34782.00000	1129.00000
1385.06532	-3.44401	2779.74534	35219.08586	35231.28825	1145.91223	1382.92250	2616.15385	35148.00000	35161.00000	1151.00000
1391.25968	-3.41975	2628.77279	35390.18732	35403.48011	1143.78663	1389.11287	2850.08333	35325.00000	35337.00000	1136.00000
1397.45403	-3.25772	1810.18925	35543.99544	35562.57653	1158.59214	1395.30324	2021.17647	35505.00000	35522.00000	1162.00000
1403.64839	-3.31048	2044.00905	35768.80188	35786.21995	1142.84847	1401.49361	1817.10526	35649.00000	35668.00000	1143.00000
1409.84274	-3.40758	2556.10539	36418.31461	36431.93038	1152.04816	1407.68398	2500.35714	36142.00000	36156.00000	1151.00000
1416.03710	-3.35879	2284.51298	37385.90813	37401.82445	1163.12682	1413.87435	2392.73333	37031.00000	37046.00000	1155.00000
1422.23145	-3.33791	2177.26795	38428.58785	38445.68904	1182.61155	1420.06472	2170.58824	38063.00000	38080.00000	1180.00000
1428.42581	-3.34936	2235.44379	39544.07874	39561.25033	1182.17971	1426.25509	2233.58824	39135.00000	39152.00000	1181.00000
1434.62016	-3.32693	2122.89232	40671.69006	40690.28132	1191.13122	1432.44546	2173.83333	40299.00000	40317.00000	1188.00000
1440.81452	-3.34217	2198.71782	41594.32772	41612.76693	1201.11982	1438.63583	2111.00000	41287.00000	41306.00000	1197.00000
1447.00887	-3.39325	2473.14545	42596.69507	42613.39314	1222.13599	1444.82620	2412.17647	42203.00000	42220.00000	1213.00000
1453.20323	-3.38880	2447.92853	43650.83326	43668.19039	1223.01192	1451.01657	2477.05882	43323.00000	43340.00000	1230.00000
1459.39758	-3.37579	2375.66939	44526.92237	44545.14204	1220.45293	1457.20694	2389.00000	44196.00000	44214.00000	1212.00000
1465.59194	-3.40532	2542.81672	45579.93358	45597.38196	1249.69088	1463.39731	2442.77778	45197.00000	45215.00000	1245.00000
1471.78629	-3.40960	2568.00391	46586.64037	46604.36624	1249.03221	1469.58768	2648.29412	46252.00000	46269.00000	1248.00000
1477.98065	-3.39482	2482.08579	47438.66270	47457.24262	1245.75975	1475.77805	2416.42105	47143.00000	47162.00000	1250.00000
1484.17500	-3.39346	2474.32404	48345.37921	48364.62338	1252.35489	1481.96842	2598.72222	48002.00000	48020.00000	1243.00000
1490.36935	-3.33398	2157.63667	49195.50054	49217.56002	1280.49056	1488.15879	2167.36364	48935.00000	48957.00000	1275.00000
1496.56371	-3.41959	2627.76537	49879.75977	49898.34720	1281.33479	1494.34916	2417.80000	49617.00000	49637.00000	1281.00000
1502.75806	-3.45808	2871.27977	50591.13368	50608.25098	1278.84800	1500.53953	2887.94118	50359.00000	50376.00000	1281.00000
1508.95242	-3.38545	2429.13344	51253.94705	51274.60916	1305.36055	1506.72990	2617.21053	50995.00000	51014.00000	1287.00000
1515.14677	-3.33966	2186.03433	51974.54788	51997.69275	1312.90809	1512.92027	2192.52174	51732.00000	51755.00000	1327.00000
1521.34113	-3.38290	2414.87884	52689.45904	52710.74260	1292.08911	1519.11064	2324.90909	52409.00000	52431.00000	1283.00000
1527.53548	-3.38118	2405.38201	53401.95985	53423.66127	1332.87279	1525.30101	2470.14286	53179.00000	53200.00000	1327.00000
1533.72984	-3.36220	2302.52455	54002.35592	54025.24035	1327.04980	1531.49138	2280.91304	53765.00000	53788.00000	1327.00000
1539.92419	-3.38764	2441.42328	54685.66866	54707.52507	1327.88091	1537.68175	2415.50000	54449.00000	54471.00000	1330.00000
1546.11855	-3.39092	2459.92715	55305.50505	55327.45494	1332.11680	1543.87212	2444.36364	55080.00000	55102.00000	1326.00000
1552.31290	-3.38688	2437.13706	55885.78286	55908.17552	1351.18210	1550.06249	2471.00000	55687.00000	55709.00000	1347.00000
1558.50726	-3.38360	2418.78913	56504.22254	56527.04447	1356.85298	1556.25286	2387.95652	56254.00000	56277.00000	1354.00000
1564.70161	-3.40963	2568.22564	57069.58599	57091.25355	1362.75278	1562.44323	2526.00000	56912.00000	56934.00000	1362.00000
1570.89597	-3.39134	2462.29242	57488.91062	57511.77413	1362.27559	1568.63360	2543.86364	57305.00000	57327.00000	1362.00000
1577.09032	-3.38096	2404.13953	58027.63536	58051.16495	1370.43513	1574.82397	2354.37500	57847.00000	57871.00000	1366.00000
1583.28468	-3.47404	2978.82059	58482.60640	58501.75638	1385.24233	1581.01434	2712.04762	58312.00000	58333.00000	1380.00000
1589.47903	-3.47278	2970.17303	58842.89286	58862.56201	1396.45066	1587.20471	3187.05556	58742.00000	58760.00000	1393.00000
1595.67339	-3.40046	2514.54059	59142.35700	59165.23193	1390.42208	1593.39508	2505.73913	59005.00000	59028.00000	1396.00000
1601.86774	-3.44747	2802.02601	59546.69311	59567.43696	1396.72027	1599.58545	2764.04762	59411.00000	59432.00000	1387.00000
1608.06210	-3.45324	2839.49989	59850.53578	59871.13908	1408.90993	1605.77582	2778.61905	59743.00000	59764.00000	1413.00000
1614.25645	-3.45753	2867.66412	60141.62157	60162.15011	1401.25275	1611.96619	2932.85000	60034.00000	60054.00000	1397.00000
1620.45081	-3.41985	2629.35730	60323.44166	60345.81400	1410.23568	1618.15656	2676.95455	60284.00000	60306.00000	1413.00000
1626.64516	-3.44072	2758.81547	60434.45088	60455.88105	1405.93416	1624.34693	2681.54545	60374.00000	60396.00000	1402.00000
1632.83952	-3.43905	2748.20265	60655.34269	60676.87686	1416.67989	1630.53730	2818.04762	60575.00000	60596.00000	1417.00000
1639.03387	-3.45496	2850.75669	60690.27335	60711.22630	1403.45317	1636.72767	2697.04545	60721.00000	60743.00000	1408.00000
1645.22823	-3.48656	3065.93215	60447.19563	60466.36236	1405.93740	1642.91804	3114.52632	60559.00000	60578.00000	1402.00000
1651.42258	-3.48061	3024.22691	59290.56521	59310.01446	1423.05005	1649.10841	2927.00000	59937.00000	59957.00000	1417.00000
1657.61694	-3.47055	2954.92690	56927.67157	56945.53657	1410.65609	1655.29878	3134.83333	57831.00000	57849.00000	1422.00000
1663.81129	-3.62244	4192.17750	55514.94678	55529.71715	1386.88493	1661.48915	3202.17647	55810.00000	55827.00000	1390.00000
1670.00565	-3.68439	4834.96831	53518.97388	53526.96388	1380.60414	1667.67952	5335.30000	54730.00000	54740.00000	1387.00000
1676.20000	-4.19933	15824.56512	49153.87125	49158.85501	1332.07711	1673.86989	8239.00000	50783.00000	50789.00000	1355.00000
0.00000	0.00000	0.00000	0.00000	0.00000	0.00000	1680.06026	22425.00000	46145.00000	46147.00000	1297.00000
0.00000	0.00000	0.00000	0.00000	0.00000	0.00000	1686.25063	-6588.50000	40818.00000	40812.00000	1281.00000
0.00000	0.00000	0.00000	0.00000	0.00000	0.00000	1692.44100	-6588.50000	40818.00000	40812.00000	1281.00000
