'File 13_2016Ò»ÔÂ27_1245.xls
'Part ID 13
'Scan Created 2016-1-27 12:45:08
'Instrument S1-00205
'Version 1.5.7
'Integration Time 10100 µs
'Number of Scans 50
'Units Absorbance
'Thermistor 40.65
Wavelength	Absorbance	Normalized	100%	dark	Raw 1	Native Wvl	Native Norm	Native 100%	Native dark	Native 1
908.10000	-2.92199	835.58994	3374.18868	3375.40339	2251.01998	906.26400	580.00000	3442.00000	3444.00000	2284.00000
914.29435	-2.92755	846.35308	3185.51697	3187.66666	2156.48887	912.45437	1052.00000	3231.00000	3232.00000	2180.00000
920.48871	-2.14618	140.01809	3153.83950	3158.73787	2154.85579	918.64474	201.20000	3140.00000	3145.00000	2139.00000
926.68306	-2.58490	384.50435	3245.71853	3248.37362	2225.13120	924.83511	338.00000	3222.00000	3225.00000	2211.00000
932.87742	-2.51899	330.35866	3347.11849	3350.31829	2275.31152	931.02548	352.00000	3305.00000	3308.00000	2252.00000
939.07177	-2.40176	252.20694	3569.21500	3573.92864	2416.83502	937.21585	282.50000	3492.00000	3496.00000	2366.00000
945.26613	-2.33502	216.28109	3808.01150	3813.78889	2565.89190	943.40622	203.66667	3747.00000	3753.00000	2531.00000
951.46048	-2.59303	391.76837	3975.33779	3978.56387	2662.11111	949.59659	324.75000	3925.00000	3929.00000	2630.00000
957.65484	-2.58916	388.29773	4173.45998	4177.42580	2798.43352	955.78696	452.33333	4108.00000	4111.00000	2754.00000
963.84919	-2.44431	278.17076	4346.60860	4352.14708	2906.07504	961.97733	238.33333	4309.00000	4315.00000	2885.00000
970.04355	-2.73323	541.03472	4488.85036	4491.33061	3002.24225	968.16770	491.66667	4430.00000	4433.00000	2958.00000
976.23790	-2.65769	454.66590	4681.39071	4685.00585	3135.77203	974.35807	509.66667	4637.00000	4640.00000	3111.00000
982.43226	-2.45841	287.35246	4824.97664	4830.30002	3211.55638	980.54844	319.60000	4769.00000	4774.00000	3176.00000
988.62661	-2.61689	413.89087	5044.78557	5049.14418	3361.15880	986.73881	333.20000	4980.00000	4985.00000	3319.00000
994.82097	-2.76398	580.73099	5276.35425	5279.35048	3500.84043	992.92918	582.33333	5197.00000	5200.00000	3453.00000
1001.01532	-2.61739	414.37364	5533.10145	5537.59847	3664.04900	999.11955	462.25000	5462.00000	5466.00000	3617.00000
1007.20968	-2.62071	417.55219	5800.42541	5805.22003	3832.13567	1005.30992	386.80000	5703.00000	5708.00000	3774.00000
1013.40403	-2.73124	538.56911	6100.06762	6103.91265	4015.47185	1011.50029	515.75000	6025.00000	6029.00000	3966.00000
1019.59839	-2.70930	512.03807	6318.34269	6322.53020	4172.08720	1017.69066	532.00000	6243.00000	6247.00000	4119.00000
1025.79274	-2.60753	405.07249	6590.09348	6595.70940	4349.36685	1023.88103	443.00000	6508.00000	6513.00000	4298.00000
1031.98710	-2.49644	313.64667	6856.39546	6863.72132	4520.20920	1030.07140	330.71429	6771.00000	6778.00000	4463.00000
1038.18145	-2.59606	394.51189	7131.33234	7137.69228	4701.75525	1036.26177	343.71429	7049.00000	7056.00000	4650.00000
1044.37581	-2.70354	505.28481	7422.54165	7427.48745	4885.03771	1042.45214	501.60000	7323.00000	7328.00000	4820.00000
1050.57016	-2.60076	398.80525	7753.60670	7760.34346	5106.09413	1048.64251	436.66667	7655.00000	7661.00000	5041.00000
1056.76452	-2.52579	335.57197	8044.95645	8053.03573	5292.03927	1054.83288	341.00000	7956.00000	7964.00000	5236.00000
1062.95887	-2.68183	480.64657	8344.77495	8350.83811	5480.76294	1061.02325	405.00000	8247.00000	8254.00000	5419.00000
1069.15323	-2.73799	546.99767	8649.24482	8654.99124	5663.12600	1067.21362	590.40000	8559.00000	8564.00000	5612.00000
1075.34758	-2.57104	372.42574	8937.85128	8945.90866	5822.86192	1073.40399	385.25000	8843.00000	8851.00000	5769.00000
1081.54194	-2.83051	676.87749	9247.56598	9252.20326	6001.78581	1079.59436	535.16667	9152.00000	9158.00000	5947.00000
1087.73629	-2.85467	715.59664	9570.69311	9576.59718	6207.59312	1085.78473	833.25000	9462.00000	9466.00000	6133.00000
1093.93065	-2.36613	232.34477	9918.24000	9929.83707	6449.63645	1091.97510	313.18182	9813.00000	9824.00000	6379.00000
1100.12500	-2.77599	597.02193	10263.53096	10270.46266	6678.04764	1098.16547	395.22222	10147.00000	10156.00000	6599.00000
1106.31935	-2.93094	852.99143	10652.67119	10657.14925	6956.98847	1104.35584	916.75000	10530.00000	10534.00000	6867.00000
1112.51371	-2.69649	497.15162	11030.17335	11037.49408	7236.98743	1110.54621	538.42857	10911.00000	10918.00000	7149.00000
1118.70806	-2.73196	539.45775	11415.53081	11422.84855	7516.06559	1116.73658	553.00000	11290.00000	11297.00000	7426.00000
1124.90242	-2.73612	544.65253	11825.98417	11833.52157	7808.86329	1122.92695	498.37500	11693.00000	11701.00000	7714.00000
1131.09677	-2.84308	696.74962	12249.90190	12255.75491	8103.04799	1129.11732	684.83333	12114.00000	12120.00000	8011.00000
1137.29113	-2.73524	543.55168	12635.57805	12643.52749	8348.36837	1135.30769	607.14286	12522.00000	12529.00000	8279.00000
1143.48548	-2.73243	540.05121	13027.02284	13035.39725	8587.85772	1141.49806	488.33333	12885.00000	12894.00000	8499.00000
1149.67984	-2.79189	619.27885	13502.54716	13510.16114	8887.42289	1147.68843	652.28571	13354.00000	13361.00000	8795.00000
1155.87419	-2.65785	454.83507	13961.95475	13972.37745	9149.64187	1153.87880	475.20000	13809.00000	13819.00000	9067.00000
1162.06855	-2.71735	521.62078	14471.96322	14481.68877	9422.90646	1160.06917	498.30000	14303.00000	14313.00000	9330.00000
1168.26290	-2.79352	621.61395	14973.17165	14981.59714	9717.46806	1166.25954	578.22222	14819.00000	14828.00000	9624.00000
1174.45726	-2.80821	642.99673	15432.18175	15440.95064	9977.76081	1172.44991	673.87500	15282.00000	15290.00000	9899.00000
1180.65161	-2.66622	463.67647	15907.32325	15918.75818	10198.74437	1178.64028	512.18182	15752.00000	15763.00000	10129.00000
1186.84597	-2.91425	820.82406	16408.50651	16416.67456	10430.09126	1184.83065	590.00000	16240.00000	16250.00000	10350.00000
1193.04032	-3.07484	1188.07159	16921.12190	16926.29826	10660.38989	1191.02102	1234.20000	16759.00000	16764.00000	10593.00000
1199.23468	-2.83428	682.78552	17423.52159	17432.97346	10836.73170	1197.21139	810.12500	17254.00000	17262.00000	10781.00000
1205.42903	-2.81779	657.33992	17946.70689	17957.42904	11002.65279	1203.40176	621.90909	17779.00000	17790.00000	10949.00000
1211.62339	-2.93842	867.79406	18443.34552	18451.58580	11222.95906	1209.59213	795.00000	18281.00000	18290.00000	11135.00000
1217.81774	-2.92891	848.99931	18976.99658	18985.82782	11629.45117	1215.78250	916.12500	18792.00000	18800.00000	11471.00000
1224.01210	-2.71407	517.69621	19553.19521	19567.00153	12180.82705	1221.97287	615.16667	19367.00000	19379.00000	11997.00000
1230.20645	-2.77809	599.91351	20074.40776	20087.65077	12689.02204	1228.16324	492.80000	19910.00000	19925.00000	12533.00000
1236.40081	-2.91262	817.75803	20599.75229	20608.67123	13156.40447	1234.35361	825.33333	20415.00000	20424.00000	12996.00000
1242.59516	-2.82065	661.68533	21136.51670	21147.89719	13601.36895	1240.54398	683.09091	20973.00000	20984.00000	13470.00000
1248.78952	-2.84368	697.71260	21603.90046	21614.86055	13963.35603	1246.73435	692.27273	21444.00000	21455.00000	13840.00000
1254.98387	-2.86062	725.47740	22139.15349	22149.89524	14373.71014	1252.92472	702.90909	21953.00000	21964.00000	14232.00000
1261.17823	-2.90616	805.68153	22695.73308	22705.54949	14780.59527	1259.11509	787.30000	22516.00000	22526.00000	14653.00000
1267.37258	-2.89431	783.99787	23208.08047	23218.40789	15135.52151	1265.30546	803.10000	23039.00000	23049.00000	15018.00000
1273.56694	-2.86895	739.52057	23771.26894	23782.40498	15543.01623	1271.49583	744.18182	23568.00000	23579.00000	15393.00000
1279.76129	-2.88881	774.12730	24399.03484	24409.86762	16009.42024	1277.68620	758.81818	24194.00000	24205.00000	15858.00000
1285.95565	-2.86998	741.26846	24988.62671	25000.23619	16440.02058	1283.87657	773.27273	24791.00000	24802.00000	16296.00000
1292.15000	-2.81640	655.24558	25587.32745	25600.59759	16873.57380	1290.06694	666.92308	25384.00000	25397.00000	16727.00000
1298.34435	-2.84736	703.65228	26229.53882	26242.22441	17335.79777	1296.25731	680.30769	26005.00000	26018.00000	17174.00000
1304.53871	-2.88830	773.21284	26866.52561	26878.23672	17784.82117	1302.44769	752.58333	26664.00000	26676.00000	17645.00000
1310.73306	-2.86237	728.39666	27500.83127	27513.70993	18222.95486	1308.63806	768.33333	27268.00000	27280.00000	18060.00000
1316.92742	-2.77966	602.09162	28221.25348	28236.87291	18716.83356	1314.82843	629.33333	27983.00000	27998.00000	18558.00000
1323.12177	-2.85920	723.09541	28908.65323	28922.30898	19161.33113	1321.01880	645.26667	28673.00000	28688.00000	19009.00000
1329.31613	-2.89220	780.18793	29584.83896	29597.89480	19590.78778	1327.20917	826.83333	29362.00000	29374.00000	19452.00000
1335.51048	-2.80137	632.94559	30251.85634	30267.92031	19992.73275	1333.39954	636.25000	30016.00000	30032.00000	19852.00000
1341.70484	-2.91526	822.73219	30979.17453	30992.04882	20408.92678	1339.58991	748.07143	30729.00000	30743.00000	20270.00000
1347.89919	-2.94325	877.50748	31644.96003	31657.46099	20741.53946	1345.78028	900.16667	31434.00000	31446.00000	20644.00000
1354.09355	-2.89661	788.14912	32303.27279	32317.56198	21022.20965	1351.97065	796.64286	32056.00000	32070.00000	20917.00000
1360.28790	-2.93088	852.86808	33013.61293	33027.34561	21312.61646	1358.16102	827.00000	32789.00000	32803.00000	21225.00000
1366.48226	-2.98850	973.87616	33653.32965	33665.76426	21559.37771	1364.35139	920.53846	33421.00000	33434.00000	21467.00000
1372.67661	-2.99982	999.58130	34364.12606	34376.71400	21858.67787	1370.54176	1031.58333	34122.00000	34134.00000	21755.00000
1378.87097	-2.96054	913.14607	34932.32005	34946.39324	22063.72630	1376.73213	911.71429	34768.00000	34782.00000	22018.00000
1385.06532	-3.03319	1079.42156	35219.08586	35231.28825	22000.97706	1382.92250	1008.07692	35148.00000	35161.00000	22056.00000
1391.25968	-3.01692	1039.73593	35390.18732	35403.48011	21847.80847	1389.11287	1121.41667	35325.00000	35337.00000	21880.00000
1397.45403	-2.85971	723.95767	35543.99544	35562.57653	21798.80899	1395.30324	805.88235	35505.00000	35522.00000	21822.00000
1403.64839	-2.92029	832.31944	35768.80188	35786.21995	21696.46776	1401.49361	733.36842	35649.00000	35668.00000	21734.00000
1409.84274	-3.03091	1073.77245	36418.31461	36431.93038	21598.73457	1407.68398	1037.57143	36142.00000	36156.00000	21630.00000
1416.03710	-3.00027	1000.62312	37385.90813	37401.82445	21531.59584	1413.87435	1033.00000	37031.00000	37046.00000	21551.00000
1422.23145	-2.99597	990.75970	38428.58785	38445.68904	21493.34580	1420.06472	975.05882	38063.00000	38080.00000	21504.00000
1428.42581	-3.02089	1049.26630	39544.07874	39561.25033	21544.95920	1426.25509	1037.94118	39135.00000	39152.00000	21507.00000
1434.62016	-3.00889	1020.68398	40671.69006	40690.28132	21696.40160	1432.44546	1037.33333	40299.00000	40317.00000	21645.00000
1440.81452	-3.03176	1075.88236	41594.32772	41612.76693	21842.90007	1438.63583	1027.31579	41287.00000	41306.00000	21787.00000
1447.00887	-3.08774	1223.88210	42596.69507	42613.39314	22127.77836	1444.82620	1189.47059	42203.00000	42220.00000	21999.00000
1453.20323	-3.08750	1223.21909	43650.83326	43668.19039	22459.37205	1451.01657	1233.58824	43323.00000	43340.00000	22369.00000
1459.39758	-3.07847	1198.02369	44526.92237	44545.14204	22695.15419	1457.20694	1201.00000	44196.00000	44214.00000	22596.00000
1465.59194	-3.11183	1293.70110	45579.93358	45597.38196	23038.89784	1463.39731	1238.88889	45197.00000	45215.00000	22915.00000
1471.78629	-3.11935	1316.27605	46586.64037	46604.36624	23350.96688	1469.58768	1354.11765	46252.00000	46269.00000	23249.00000
1477.98065	-3.10750	1280.84077	47438.66270	47457.24262	23615.67870	1475.77805	1244.26316	47143.00000	47162.00000	23521.00000
1484.17500	-3.10741	1280.59789	48345.37921	48364.62338	23978.60481	1481.96842	1344.11111	48002.00000	48020.00000	23826.00000
1490.36935	-3.04797	1116.78191	49195.50054	49217.56002	24407.56944	1488.15879	1122.18182	48935.00000	48957.00000	24269.00000
1496.56371	-3.13207	1355.40564	49879.75977	49898.34720	24819.22251	1494.34916	1249.15000	49617.00000	49637.00000	24654.00000
1502.75806	-3.16809	1472.60828	50591.13368	50608.25098	25309.62748	1500.53953	1484.47059	50359.00000	50376.00000	25140.00000
1508.95242	-3.09226	1236.68863	51253.94705	51274.60916	25836.82493	1506.72990	1336.10526	50995.00000	51014.00000	25628.00000
1515.14677	-3.04293	1103.91087	51974.54788	51997.69275	26400.37277	1512.92027	1110.39130	51732.00000	51755.00000	26216.00000
1521.34113	-3.08295	1210.46723	52689.45904	52710.74260	26936.45603	1519.11064	1168.50000	52409.00000	52431.00000	26724.00000
1527.53548	-3.07866	1198.55879	53401.95985	53423.66127	27469.62806	1525.30101	1233.00000	53179.00000	53200.00000	27307.00000
1533.72984	-3.05796	1142.78295	54002.35592	54025.24035	27868.34281	1531.49138	1133.56522	53765.00000	53788.00000	27716.00000
1539.92419	-3.08215	1208.22543	54685.66866	54707.52507	28291.92780	1537.68175	1196.54545	54449.00000	54471.00000	28147.00000
1546.11855	-3.08410	1213.65807	55305.50505	55327.45494	28686.53102	1543.87212	1207.45455	55080.00000	55102.00000	28538.00000
1552.31290	-3.07832	1197.62440	55885.78286	55908.17552	29100.00350	1550.06249	1216.18182	55687.00000	55709.00000	28953.00000
1558.50726	-3.07285	1182.62360	56504.22254	56527.04447	29551.45090	1556.25286	1169.73913	56254.00000	56277.00000	29373.00000
1564.70161	-3.09683	1249.76221	57069.58599	57091.25355	29972.14675	1562.44323	1231.27273	56912.00000	56934.00000	29846.00000
1570.89597	-3.07655	1192.74676	57488.91062	57511.77413	30313.75677	1568.63360	1234.36364	57305.00000	57327.00000	30171.00000
1577.09032	-3.06405	1158.89823	58027.63536	58051.16495	30730.26272	1574.82397	1136.87500	57847.00000	57871.00000	30586.00000
1583.28468	-3.15476	1428.11608	58482.60640	58501.75638	31112.04271	1581.01434	1303.09524	58312.00000	58333.00000	30968.00000
1589.47903	-3.15110	1416.11732	58842.89286	58862.56201	31475.76834	1587.20471	1522.61111	58742.00000	58760.00000	31353.00000
1595.67339	-3.07449	1187.10805	59142.35700	59165.23193	31873.75880	1593.39508	1188.04348	59005.00000	59028.00000	31703.00000
1601.86774	-3.11660	1307.96698	59546.69311	59567.43696	32426.72421	1599.58545	1295.95238	59411.00000	59432.00000	32217.00000
1608.06210	-3.11538	1304.31068	59850.53578	59871.13908	33004.93347	1605.77582	1284.47619	59743.00000	59764.00000	32790.00000
1614.25645	-3.11251	1295.72841	60141.62157	60162.15011	33621.07829	1611.96619	1333.40000	60034.00000	60054.00000	33386.00000
1620.45081	-3.06694	1166.64075	60323.44166	60345.81400	34193.08165	1618.15656	1195.63636	60284.00000	60306.00000	34002.00000
1626.64516	-3.08035	1203.22763	60434.45088	60455.88105	34696.38711	1624.34693	1177.13636	60374.00000	60396.00000	34499.00000
1632.83952	-3.07210	1180.59618	60655.34269	60676.87686	35231.65345	1630.53730	1216.85714	60575.00000	60596.00000	35042.00000
1639.03387	-3.08141	1206.18009	60690.27335	60711.22630	35601.37152	1636.72767	1147.72727	60721.00000	60743.00000	35493.00000
1645.22823	-3.10799	1282.31546	60447.19563	60466.36236	35782.39735	1642.91804	1307.78947	60559.00000	60578.00000	35730.00000
1651.42258	-3.09605	1247.52006	59290.56521	59310.01446	35406.55911	1649.10841	1214.10000	59937.00000	59957.00000	35675.00000
1657.61694	-3.08212	1208.15923	56927.67157	56945.53657	34282.34443	1655.29878	1284.83333	57831.00000	57849.00000	34722.00000
1663.81129	-3.22738	1688.02358	55514.94678	55529.71715	33672.82475	1661.48915	1297.76471	55810.00000	55827.00000	33765.00000
1670.00565	-3.28818	1941.67411	53518.97388	53526.96388	32675.58626	1667.67952	2140.80000	54730.00000	54740.00000	33332.00000
1676.20000	-3.79674	6262.40253	49153.87125	49158.85501	30194.15438	1673.86989	3276.50000	50783.00000	50789.00000	31130.00000
0.00000	0.00000	0.00000	0.00000	0.00000	0.00000	1680.06026	8857.00000	46145.00000	46147.00000	28433.00000
0.00000	0.00000	0.00000	0.00000	0.00000	0.00000	1686.25063	-2591.66667	40818.00000	40812.00000	25262.00000
0.00000	0.00000	0.00000	0.00000	0.00000	0.00000	1692.44100	-2591.66667	40818.00000	40812.00000	25262.00000
