'File 14_2016Ò»ÔÂ27_1245.xls
'Part ID 14
'Scan Created 2016-1-27 12:45:10
'Instrument S1-00205
'Version 1.5.7
'Integration Time 10100 µs
'Number of Scans 50
'Units Absorbance
'Thermistor 40.65
Wavelength	Absorbance	Normalized	100%	dark	Raw 1	Native Wvl	Native Norm	Native 100%	Native dark	Native 1
908.10000	-2.92263	836.82019	3374.18868	3375.40339	2249.48807	906.26400	580.50000	3442.00000	3444.00000	2283.00000
914.29435	-2.92836	847.93877	3185.51697	3187.66666	2154.90393	912.45437	1054.00000	3231.00000	3232.00000	2178.00000
920.48871	-2.14521	139.70542	3153.83950	3158.73787	2155.31108	918.64474	201.20000	3140.00000	3145.00000	2139.00000
926.68306	-2.58451	384.16053	3245.71853	3248.37362	2226.30875	924.83511	337.66667	3222.00000	3225.00000	2212.00000
932.87742	-2.51875	330.17796	3347.11849	3350.31829	2275.74543	931.02548	351.66667	3305.00000	3308.00000	2253.00000
939.07177	-2.40226	252.49912	3569.21500	3573.92864	2415.72361	937.21585	282.75000	3492.00000	3496.00000	2365.00000
945.26613	-2.33455	216.04962	3808.01150	3813.78889	2566.76263	943.40622	203.66667	3747.00000	3753.00000	2531.00000
951.46048	-2.59268	391.45188	3975.33779	3978.56387	2663.54972	949.59659	324.25000	3925.00000	3929.00000	2632.00000
957.65484	-2.58965	388.73364	4173.45998	4177.42580	2796.73326	955.78696	452.66667	4108.00000	4111.00000	2753.00000
963.84919	-2.44476	278.45929	4346.60860	4352.14708	2904.36543	961.97733	238.66667	4309.00000	4315.00000	2883.00000
970.04355	-2.73356	541.45406	4488.85036	4491.33061	3001.21971	968.16770	492.00000	4430.00000	4433.00000	2957.00000
976.23790	-2.65840	455.40796	4681.39071	4685.00585	3133.07433	974.35807	510.33333	4637.00000	4640.00000	3109.00000
982.43226	-2.45892	287.68698	4824.97664	4830.30002	3209.69105	980.54844	320.20000	4769.00000	4774.00000	3173.00000
988.62661	-2.61673	413.74089	5044.78557	5049.14418	3362.13621	986.73881	333.00000	4980.00000	4985.00000	3320.00000
994.82097	-2.76433	581.21037	5276.35425	5279.35048	3499.14627	992.92918	582.66667	5197.00000	5200.00000	3452.00000
1001.01532	-2.61781	414.76931	5533.10145	5537.59847	3662.43716	999.11955	462.75000	5462.00000	5466.00000	3615.00000
1007.20968	-2.62050	417.34818	5800.42541	5805.22003	3832.95660	1005.30992	386.80000	5703.00000	5708.00000	3774.00000
1013.40403	-2.73086	538.09090	6100.06762	6103.91265	4017.39431	1011.50029	515.25000	6025.00000	6029.00000	3968.00000
1019.59839	-2.70915	511.85995	6318.34269	6322.53020	4172.76205	1017.69066	531.75000	6243.00000	6247.00000	4120.00000
1025.79274	-2.60722	404.78091	6590.09348	6595.70940	4351.13698	1023.88103	442.80000	6508.00000	6513.00000	4299.00000
1031.98710	-2.49595	313.29510	6856.39546	6863.72132	4522.67146	1030.07140	330.28571	6771.00000	6778.00000	4466.00000
1038.18145	-2.59621	394.64413	7131.33234	7137.69228	4700.97564	1036.26177	343.71429	7049.00000	7056.00000	4650.00000
1044.37581	-2.70362	505.38712	7422.54165	7427.48745	4884.58262	1042.45214	501.80000	7323.00000	7328.00000	4819.00000
1050.57016	-2.60054	398.60660	7753.60670	7760.34346	5107.34676	1048.64251	436.50000	7655.00000	7661.00000	5042.00000
1056.76452	-2.52566	335.47827	8044.95645	8053.03573	5292.79865	1054.83288	340.87500	7956.00000	7964.00000	5237.00000
1062.95887	-2.68190	480.73368	8344.77495	8350.83811	5480.27375	1061.02325	405.00000	8247.00000	8254.00000	5419.00000
1069.15323	-2.73809	547.13005	8649.24482	8654.99124	5662.51000	1067.21362	590.60000	8559.00000	8564.00000	5611.00000
1075.34758	-2.57115	372.52010	8937.85128	8945.90866	5822.24965	1073.40399	385.25000	8843.00000	8851.00000	5769.00000
1081.54194	-2.83068	677.14714	9247.56598	9252.20326	6000.23895	1079.59436	535.50000	9152.00000	9158.00000	5945.00000
1087.73629	-2.85467	715.59570	9570.69311	9576.59718	6207.33198	1085.78473	833.25000	9462.00000	9466.00000	6133.00000
1093.93065	-2.36658	232.58408	9918.24000	9929.83707	6447.22126	1091.97510	313.36364	9813.00000	9824.00000	6377.00000
1100.12500	-2.77610	597.17935	10263.53096	10270.46266	6676.67554	1098.16547	395.44444	10147.00000	10156.00000	6597.00000
1106.31935	-2.93093	852.96140	10652.67119	10657.14925	6957.23440	1104.35584	916.75000	10530.00000	10534.00000	6867.00000
1112.51371	-2.69680	497.51213	11030.17335	11037.49408	7234.44913	1110.54621	538.57143	10911.00000	10918.00000	7148.00000
1118.70806	-2.73221	539.77004	11415.53081	11422.84855	7513.91082	1116.73658	553.57143	11290.00000	11297.00000	7422.00000
1124.90242	-2.73605	544.56239	11825.98417	11833.52157	7809.94670	1122.92695	498.12500	11693.00000	11701.00000	7716.00000
1131.09677	-2.84359	697.56959	12249.90190	12255.75491	8097.78176	1129.11732	685.50000	12114.00000	12120.00000	8007.00000
1137.29113	-2.73547	543.83664	12635.57805	12643.52749	8346.44295	1135.30769	607.71429	12522.00000	12529.00000	8275.00000
1143.48548	-2.73224	539.80841	13027.02284	13035.39725	8589.98070	1141.49806	488.11111	12885.00000	12894.00000	8501.00000
1149.67984	-2.79195	619.37445	13502.54716	13510.16114	8886.52711	1147.68843	652.28571	13354.00000	13361.00000	8795.00000
1155.87419	-2.65786	454.83666	13961.95475	13972.37745	9149.62037	1153.87880	475.30000	13809.00000	13819.00000	9066.00000
1162.06855	-2.71720	521.43085	14471.96322	14481.68877	9424.76801	1160.06917	498.10000	14303.00000	14313.00000	9332.00000
1168.26290	-2.79359	621.71692	14973.17165	14981.59714	9716.61218	1166.25954	578.22222	14819.00000	14828.00000	9624.00000
1174.45726	-2.80839	643.26480	15432.18175	15440.95064	9975.50779	1172.44991	674.12500	15282.00000	15290.00000	9897.00000
1180.65161	-2.66630	463.76956	15907.32325	15918.75818	10197.26611	1178.64028	512.36364	15752.00000	15763.00000	10127.00000
1186.84597	-2.91442	821.13818	16408.50651	16416.67456	10428.37560	1184.83065	590.10000	16240.00000	16250.00000	10349.00000
1193.04032	-3.07514	1188.89476	16921.12190	16926.29826	10655.74531	1191.02102	1235.00000	16759.00000	16764.00000	10589.00000
1199.23468	-2.83447	683.07780	17423.52159	17432.97346	10834.08728	1197.21139	810.62500	17254.00000	17262.00000	10777.00000
1205.42903	-2.81778	657.32759	17946.70689	17957.42904	11002.76506	1203.40176	621.90909	17779.00000	17790.00000	10949.00000
1211.62339	-2.93850	867.95675	18443.34552	18451.58580	11221.66526	1209.59213	795.11111	18281.00000	18290.00000	11134.00000
1217.81774	-2.92906	849.30752	18976.99658	18985.82782	11626.50850	1215.78250	916.37500	18792.00000	18800.00000	11469.00000
1224.01210	-2.71427	517.93312	19553.19521	19567.00153	12177.86027	1221.97287	615.50000	19367.00000	19379.00000	11993.00000
1230.20645	-2.77807	599.88495	20074.40776	20087.65077	12689.40621	1228.16324	492.80000	19910.00000	19925.00000	12533.00000
1236.40081	-2.91261	817.73245	20599.75229	20608.67123	13156.66578	1234.35361	825.33333	20415.00000	20424.00000	12996.00000
1242.59516	-2.82061	661.61523	21136.51670	21147.89719	13602.15048	1240.54398	683.00000	20973.00000	20984.00000	13471.00000
1248.78952	-2.84367	697.70498	21603.90046	21614.86055	13963.41850	1246.73435	692.27273	21444.00000	21455.00000	13840.00000
1254.98387	-2.86067	725.56201	22139.15349	22149.89524	14372.86572	1252.92472	702.90909	21953.00000	21964.00000	14232.00000
1261.17823	-2.90635	806.02767	22695.73308	22705.54949	14777.14107	1259.11509	787.60000	22516.00000	22526.00000	14650.00000
1267.37258	-2.89444	784.23171	23208.08047	23218.40789	15133.14931	1265.30546	803.40000	23039.00000	23049.00000	15015.00000
1273.56694	-2.86898	739.56607	23771.26894	23782.40498	15542.48381	1271.49583	744.27273	23568.00000	23579.00000	15392.00000
1279.76129	-2.88893	774.32910	24399.03484	24409.86762	16007.21654	1277.68620	758.90909	24194.00000	24205.00000	15857.00000
1285.95565	-2.87015	741.56865	24988.62671	25000.23619	16436.68018	1283.87657	773.63636	24791.00000	24802.00000	16292.00000
1292.15000	-2.81644	655.29675	25587.32745	25600.59759	16872.79290	1290.06694	667.00000	25384.00000	25397.00000	16726.00000
1298.34435	-2.84749	703.87153	26229.53882	26242.22441	17333.07109	1296.25731	680.46154	26005.00000	26018.00000	17172.00000
1304.53871	-2.88840	773.39439	26866.52561	26878.23672	17782.64161	1302.44769	752.83333	26664.00000	26676.00000	17642.00000
1310.73306	-2.86234	728.35348	27500.83127	27513.70993	18223.52759	1308.63806	768.33333	27268.00000	27280.00000	18060.00000
1316.92742	-2.77971	602.16326	28221.25348	28236.87291	18715.73285	1314.82843	629.33333	27983.00000	27998.00000	18558.00000
1323.12177	-2.85932	723.30758	28908.65323	28922.30898	19158.34783	1321.01880	645.46667	28673.00000	28688.00000	19006.00000
1329.31613	-2.89228	780.33200	29584.83896	29597.89480	19588.97465	1327.20917	827.00000	29362.00000	29374.00000	19450.00000
1335.51048	-2.80145	633.07203	30251.85634	30267.92031	19990.68088	1333.39954	636.37500	30016.00000	30032.00000	19850.00000
1341.70484	-2.91534	822.88622	30979.17453	30992.04882	20406.94733	1339.58991	748.21429	30729.00000	30743.00000	20268.00000
1347.89919	-2.94333	877.67067	31644.96003	31657.46099	20739.50906	1345.78028	900.33333	31434.00000	31446.00000	20642.00000
1354.09355	-2.89668	788.28082	32303.27279	32317.56198	21020.31085	1351.97065	796.78571	32056.00000	32070.00000	20915.00000
1360.28790	-2.93097	853.04564	33013.61293	33027.34561	21310.20089	1358.16102	827.14286	32789.00000	32803.00000	21223.00000
1366.48226	-2.98860	974.09123	33653.32965	33665.76426	21556.67626	1364.35139	920.76923	33421.00000	33434.00000	21464.00000
1372.67661	-2.99989	999.75733	34364.12606	34376.71400	21856.44714	1370.54176	1031.75000	34122.00000	34134.00000	21753.00000
1378.87097	-2.96064	913.35556	34932.32005	34946.39324	22060.75953	1376.73213	911.92857	34768.00000	34782.00000	22015.00000
1385.06532	-3.03331	1079.72583	35219.08586	35231.28825	21997.27188	1382.92250	1008.30769	35148.00000	35161.00000	22053.00000
1391.25968	-3.01708	1040.11210	35390.18732	35403.48011	21843.00804	1389.11287	1121.83333	35325.00000	35337.00000	21875.00000
1397.45403	-2.85985	724.17755	35543.99544	35562.57653	21794.55009	1395.30324	806.11765	35505.00000	35522.00000	21818.00000
1403.64839	-2.92043	832.58863	35768.80188	35786.21995	21691.78943	1401.49361	733.63158	35649.00000	35668.00000	21729.00000
1409.84274	-3.03097	1073.92712	36418.31461	36431.93038	21596.71752	1407.68398	1037.78571	36142.00000	36156.00000	21627.00000
1416.03710	-3.00030	1000.69578	37385.90813	37401.82445	21530.35539	1413.87435	1033.06667	37031.00000	37046.00000	21550.00000
1422.23145	-2.99608	991.02107	38428.58785	38445.68904	21488.94084	1420.06472	975.23529	38063.00000	38080.00000	21501.00000
1428.42581	-3.02108	1049.72689	39544.07874	39561.25033	21536.99821	1426.25509	1038.35294	39135.00000	39152.00000	21500.00000
1434.62016	-3.00905	1021.05457	40671.69006	40690.28132	21689.54558	1432.44546	1037.77778	40299.00000	40317.00000	21637.00000
1440.81452	-3.03189	1076.18246	41594.32772	41612.76693	21837.43985	1438.63583	1027.57895	41287.00000	41306.00000	21782.00000
1447.00887	-3.08793	1224.43019	42596.69507	42613.39314	22118.54649	1444.82620	1189.94118	42203.00000	42220.00000	21991.00000
1453.20323	-3.08770	1223.76051	43650.83326	43668.19039	22450.02276	1451.01657	1234.17647	43323.00000	43340.00000	22359.00000
1459.39758	-3.07858	1198.33227	44526.92237	44545.14204	22689.49827	1457.20694	1201.38889	44196.00000	44214.00000	22589.00000
1465.59194	-3.11191	1293.92435	45579.93358	45597.38196	23035.06135	1463.39731	1239.11111	45197.00000	45215.00000	22911.00000
1471.78629	-3.11946	1316.62760	46586.64037	46604.36624	23344.67205	1469.58768	1354.41176	46252.00000	46269.00000	23244.00000
1477.98065	-3.10763	1281.25160	47438.66270	47457.24262	23607.99077	1475.77805	1244.68421	47143.00000	47162.00000	23513.00000
1484.17500	-3.10751	1280.88366	48345.37921	48364.62338	23973.21586	1481.96842	1344.44444	48002.00000	48020.00000	23820.00000
1490.36935	-3.04805	1117.00215	49195.50054	49217.56002	24402.63887	1488.15879	1122.40909	48935.00000	48957.00000	24264.00000
1496.56371	-3.13216	1355.68928	49879.75977	49898.34720	24814.02121	1494.34916	1249.40000	49617.00000	49637.00000	24649.00000
1502.75806	-3.16820	1472.99175	50591.13368	50608.25098	25302.95067	1500.53953	1484.82353	50359.00000	50376.00000	25134.00000
1508.95242	-3.09237	1236.99108	51253.94705	51274.60916	25830.72373	1506.72990	1336.47368	50995.00000	51014.00000	25621.00000
1515.14677	-3.04304	1104.17277	51974.54788	51997.69275	26394.31985	1512.92027	1110.60870	51732.00000	51755.00000	26211.00000
1521.34113	-3.08307	1210.80257	52689.45904	52710.74260	26929.26170	1519.11064	1168.86364	52409.00000	52431.00000	26716.00000
1527.53548	-3.07875	1198.80372	53401.95985	53423.66127	27464.28169	1525.30101	1233.23810	53179.00000	53200.00000	27302.00000
1533.72984	-3.05808	1143.08548	54002.35592	54025.24035	27861.42574	1531.49138	1133.86957	53765.00000	53788.00000	27709.00000
1539.92419	-3.08225	1208.50383	54685.66866	54707.52507	28285.84649	1537.68175	1196.81818	54449.00000	54471.00000	28141.00000
1546.11855	-3.08418	1213.87990	55305.50505	55327.45494	28681.65818	1543.87212	1207.72727	55080.00000	55102.00000	28532.00000
1552.31290	-3.07837	1197.77327	55885.78286	55908.17552	29096.64406	1550.06249	1216.31818	55687.00000	55709.00000	28950.00000
1558.50726	-3.07293	1182.85395	56504.22254	56527.04447	29546.20365	1556.25286	1169.95652	56254.00000	56277.00000	29368.00000
1564.70161	-3.09691	1250.00130	57069.58599	57091.25355	29966.96183	1562.44323	1231.50000	56912.00000	56934.00000	29841.00000
1570.89597	-3.07665	1193.02899	57488.91062	57511.77413	30307.34656	1568.63360	1234.63636	57305.00000	57327.00000	30165.00000
1577.09032	-3.06412	1159.09508	58027.63536	58051.16495	30725.49354	1574.82397	1137.12500	57847.00000	57871.00000	30580.00000
1583.28468	-3.15482	1428.30157	58482.60640	58501.75638	31108.63738	1581.01434	1303.23810	58312.00000	58333.00000	30965.00000
1589.47903	-3.15118	1416.38441	58842.89286	58862.56201	31470.58447	1587.20471	1522.88889	58742.00000	58760.00000	31348.00000
1595.67339	-3.07458	1187.34463	59142.35700	59165.23193	31868.35685	1593.39508	1188.26087	59005.00000	59028.00000	31698.00000
1601.86774	-3.11669	1308.23311	59546.69311	59567.43696	32421.20597	1599.58545	1296.23810	59411.00000	59432.00000	32211.00000
1608.06210	-3.11544	1304.47468	59850.53578	59871.13908	33001.53906	1605.77582	1284.66667	59743.00000	59764.00000	32786.00000
1614.25645	-3.11256	1295.87689	60141.62157	60162.15011	33618.03692	1611.96619	1333.55000	60034.00000	60054.00000	33383.00000
1620.45081	-3.06703	1166.87698	60323.44166	60345.81400	34187.81713	1618.15656	1195.81818	60284.00000	60306.00000	33998.00000
1626.64516	-3.08046	1203.54339	60434.45088	60455.88105	34689.57280	1624.34693	1177.45455	60374.00000	60396.00000	34492.00000
1632.83952	-3.07217	1180.77252	60655.34269	60676.87686	35227.87731	1630.53730	1217.09524	60575.00000	60596.00000	35037.00000
1639.03387	-3.08148	1206.36709	60690.27335	60711.22630	35597.54449	1636.72767	1147.86364	60721.00000	60743.00000	35490.00000
1645.22823	-3.10807	1282.53416	60447.19563	60466.36236	35778.28196	1642.91804	1308.05263	60559.00000	60578.00000	35725.00000
1651.42258	-3.09608	1247.61234	59290.56521	59310.01446	35404.58973	1649.10841	1214.20000	59937.00000	59957.00000	35673.00000
1657.61694	-3.08220	1208.37149	56927.67157	56945.53657	34279.21477	1655.29878	1285.00000	57831.00000	57849.00000	34719.00000
1663.81129	-3.22735	1687.92403	55514.94678	55529.71715	33672.26288	1661.48915	1297.88235	55810.00000	55827.00000	33763.00000
1670.00565	-3.28813	1941.48585	53518.97388	53526.96388	32681.30307	1667.67952	2140.50000	54730.00000	54740.00000	33335.00000
1676.20000	-3.79643	6257.92779	49153.87125	49158.85501	30205.95811	1673.86989	3274.83333	50783.00000	50789.00000	31140.00000
0.00000	0.00000	0.00000	0.00000	0.00000	0.00000	1680.06026	8850.00000	46145.00000	46147.00000	28447.00000
0.00000	0.00000	0.00000	0.00000	0.00000	0.00000	1686.25063	-2588.83333	40818.00000	40812.00000	25279.00000
0.00000	0.00000	0.00000	0.00000	0.00000	0.00000	1692.44100	-2588.83333	40818.00000	40812.00000	25279.00000
