'File 15_2016Ò»ÔÂ27_1245.xls
'Part ID 15
'Scan Created 2016-1-27 12:45:11
'Instrument S1-00205
'Version 1.5.7
'Integration Time 10100 µs
'Number of Scans 50
'Units Absorbance
'Thermistor 40.65
Wavelength	Absorbance	Normalized	100%	dark	Raw 1	Native Wvl	Native Norm	Native 100%	Native dark	Native 1
908.10000	-3.06187	1153.09693	3374.18868	3375.40339	1827.31963	906.26400	796.00000	3442.00000	3444.00000	1852.00000
914.29435	-3.06955	1173.68464	3185.51697	3187.66666	1756.26551	912.45437	1458.00000	3231.00000	3232.00000	1774.00000
920.48871	-2.29233	196.03456	3153.83950	3158.73787	1759.33741	918.64474	280.00000	3140.00000	3145.00000	1745.00000
926.68306	-2.73137	538.72483	3245.71853	3248.37362	1813.35903	924.83511	473.33333	3222.00000	3225.00000	1805.00000
932.87742	-2.66782	465.39270	3347.11849	3350.31829	1836.50973	931.02548	495.00000	3305.00000	3308.00000	1823.00000
939.07177	-2.55252	356.87796	3569.21500	3573.92864	1936.21049	937.21585	399.25000	3492.00000	3496.00000	1899.00000
945.26613	-2.48775	307.43401	3808.01150	3813.78889	2039.85588	943.40622	289.16667	3747.00000	3753.00000	2018.00000
951.46048	-2.74784	559.55006	3975.33779	3978.56387	2098.99672	949.59659	463.00000	3925.00000	3929.00000	2077.00000
957.65484	-2.74560	556.67875	4173.45998	4177.42580	2199.41606	955.78696	648.00000	4108.00000	4111.00000	2167.00000
963.84919	-2.60260	400.50028	4346.60860	4352.14708	2271.28378	961.97733	342.66667	4309.00000	4315.00000	2259.00000
970.04355	-2.89307	781.74555	4488.85036	4491.33061	2339.26760	968.16770	709.33333	4430.00000	4433.00000	2305.00000
976.23790	-2.81966	660.17475	4681.39071	4685.00585	2436.01147	974.35807	739.33333	4637.00000	4640.00000	2422.00000
982.43226	-2.62053	417.37778	4824.97664	4830.30002	2478.24432	980.54844	464.20000	4769.00000	4774.00000	2453.00000
988.62661	-2.78055	603.32205	5044.78557	5049.14418	2589.47480	986.73881	485.00000	4980.00000	4985.00000	2560.00000
994.82097	-2.92885	848.87893	5276.35425	5279.35048	2679.15042	992.92918	850.66667	5197.00000	5200.00000	2648.00000
1001.01532	-2.78321	607.02771	5533.10145	5537.59847	2793.25580	999.11955	676.75000	5462.00000	5466.00000	2759.00000
1007.20968	-2.78680	612.07351	5800.42541	5805.22003	2912.77496	1005.30992	567.00000	5703.00000	5708.00000	2873.00000
1013.40403	-2.89802	790.71042	6100.06762	6103.91265	3037.79479	1011.50029	756.50000	6025.00000	6029.00000	3003.00000
1019.59839	-2.87776	754.67522	6318.34269	6322.53020	3153.04704	1017.69066	783.25000	6243.00000	6247.00000	3114.00000
1025.79274	-2.77720	598.68612	6590.09348	6595.70940	3275.70789	1023.88103	654.20000	6508.00000	6513.00000	3242.00000
1031.98710	-2.66757	465.12774	6856.39546	6863.72132	3388.06856	1030.07140	489.85714	6771.00000	6778.00000	3349.00000
1038.18145	-2.76908	587.59302	7131.33234	7137.69228	3510.03610	1036.26177	511.28571	7049.00000	7056.00000	3477.00000
1044.37581	-2.87753	754.28226	7422.54165	7427.48745	3631.89708	1042.45214	748.40000	7323.00000	7328.00000	3586.00000
1050.57016	-2.77536	596.15015	7753.60670	7760.34346	3792.70219	1048.64251	652.50000	7655.00000	7661.00000	3746.00000
1056.76452	-2.70111	502.47237	8044.95645	8053.03573	3919.13710	1054.83288	510.25000	7956.00000	7964.00000	3882.00000
1062.95887	-2.85749	720.25363	8344.77495	8350.83811	4049.28898	1061.02325	607.00000	8247.00000	8254.00000	4005.00000
1069.15323	-2.91307	818.58748	8649.24482	8654.99124	4178.59884	1067.21362	884.00000	8559.00000	8564.00000	4144.00000
1075.34758	-2.74485	555.70637	8937.85128	8945.90866	4285.13154	1073.40399	575.37500	8843.00000	8851.00000	4248.00000
1081.54194	-3.00352	1008.13034	9247.56598	9252.20326	4411.33036	1079.59436	797.50000	9152.00000	9158.00000	4373.00000
1087.73629	-3.02763	1065.69854	9570.69311	9576.59718	4558.23397	1085.78473	1240.50000	9462.00000	9466.00000	4504.00000
1093.93065	-2.54060	347.21321	9918.24000	9929.83707	4728.28385	1091.97510	467.54545	9813.00000	9824.00000	4681.00000
1100.12500	-2.95268	896.76601	10263.53096	10270.46266	4878.29484	1098.16547	592.33333	10147.00000	10156.00000	4825.00000
1106.31935	-3.10935	1286.32266	10652.67119	10657.14925	5073.40897	1104.35584	1381.00000	10530.00000	10534.00000	5010.00000
1112.51371	-2.87833	755.66770	11030.17335	11037.49408	5266.52292	1110.54621	815.85714	10911.00000	10918.00000	5207.00000
1118.70806	-2.91544	823.07861	11415.53081	11422.84855	5458.70536	1116.73658	843.14286	11290.00000	11297.00000	5395.00000
1124.90242	-2.92172	835.06878	11825.98417	11833.52157	5665.70955	1122.92695	762.62500	11693.00000	11701.00000	5600.00000
1131.09677	-3.03014	1071.87194	12249.90190	12255.75491	5865.85537	1129.11732	1052.83333	12114.00000	12120.00000	5803.00000
1137.29113	-2.92260	836.75914	12635.57805	12643.52749	6032.51997	1135.30769	934.71429	12522.00000	12529.00000	5986.00000
1143.48548	-2.91916	830.15668	13027.02284	13035.39725	6197.88721	1141.49806	751.00000	12885.00000	12894.00000	6135.00000
1149.67984	-2.97824	951.12708	13502.54716	13510.16114	6411.05952	1147.68843	1002.14286	13354.00000	13361.00000	6346.00000
1155.87419	-2.84273	696.19093	13961.95475	13972.37745	6589.14301	1153.87880	728.50000	13809.00000	13819.00000	6534.00000
1162.06855	-2.90028	794.83162	14471.96322	14481.68877	6774.00069	1160.06917	760.30000	14303.00000	14313.00000	6710.00000
1168.26290	-2.97532	944.74593	14973.17165	14981.59714	6980.70050	1166.25954	879.22222	14819.00000	14828.00000	6915.00000
1174.45726	-2.98881	974.55452	15432.18175	15440.95064	7160.67389	1172.44991	1022.87500	15282.00000	15290.00000	7107.00000
1180.65161	-2.84423	698.60486	15907.32325	15918.75818	7306.15831	1178.64028	772.90909	15752.00000	15763.00000	7261.00000
1186.84597	-3.08878	1226.82638	16408.50651	16416.67456	7461.46603	1184.83065	884.40000	16240.00000	16250.00000	7406.00000
1193.04032	-3.24681	1765.27190	16921.12190	16926.29826	7622.26091	1191.02102	1837.60000	16759.00000	16764.00000	7576.00000
1199.23468	-3.00109	1002.51916	17423.52159	17432.97346	7742.71070	1197.21139	1194.75000	17254.00000	17262.00000	7704.00000
1205.42903	-2.97992	954.81359	17946.70689	17957.42904	7854.91331	1203.40176	906.36364	17779.00000	17790.00000	7820.00000
1211.62339	-3.09851	1254.60516	18443.34552	18451.58580	8003.24464	1209.59213	1149.77778	18281.00000	18290.00000	7942.00000
1217.81774	-3.09142	1234.28946	18976.99658	18985.82782	8287.99760	1215.78250	1327.75000	18792.00000	18800.00000	8178.00000
1224.01210	-2.88278	763.45171	19553.19521	19567.00153	8669.95070	1221.97287	903.08333	19367.00000	19379.00000	8542.00000
1230.20645	-2.95336	898.18218	20074.40776	20087.65077	9022.19610	1228.16324	734.00000	19910.00000	19925.00000	8915.00000
1236.40081	-3.09162	1234.86093	20599.75229	20608.67123	9347.24702	1234.35361	1243.33333	20415.00000	20424.00000	9234.00000
1242.59516	-3.00357	1008.25530	21136.51670	21147.89719	9654.49941	1240.54398	1037.90909	20973.00000	20984.00000	9567.00000
1248.78952	-3.02871	1068.33106	21603.90046	21614.86055	9896.39491	1246.73435	1058.54545	21444.00000	21455.00000	9811.00000
1254.98387	-3.04770	1116.09066	22139.15349	22149.89524	10188.15275	1252.92472	1079.63636	21953.00000	21964.00000	10088.00000
1261.17823	-3.09489	1244.20594	22695.73308	22705.54949	10466.67068	1259.11509	1214.50000	22516.00000	22526.00000	10381.00000
1267.37258	-3.08420	1213.95505	23208.08047	23218.40789	10702.71255	1265.30546	1242.50000	23039.00000	23049.00000	10624.00000
1273.56694	-3.06014	1148.53128	23771.26894	23782.40498	10986.00074	1271.49583	1154.45455	23568.00000	23579.00000	10880.00000
1279.76129	-3.08165	1206.85052	24399.03484	24409.86762	11314.22355	1277.68620	1181.45455	24194.00000	24205.00000	11209.00000
1285.95565	-3.06432	1159.62093	24988.62671	25000.23619	11607.98349	1283.87657	1208.36364	24791.00000	24802.00000	11510.00000
1292.15000	-3.01215	1028.36207	25587.32745	25600.59759	11904.77015	1290.06694	1045.61538	25384.00000	25397.00000	11804.00000
1298.34435	-3.04436	1107.54431	26229.53882	26242.22441	12223.43484	1296.25731	1069.69231	26005.00000	26018.00000	12112.00000
1304.53871	-3.08646	1220.27511	26866.52561	26878.23672	12527.29620	1302.44769	1186.83333	26664.00000	26676.00000	12434.00000
1310.73306	-3.06116	1151.21875	27500.83127	27513.70993	12829.45702	1308.63806	1213.83333	27268.00000	27280.00000	12714.00000
1316.92742	-2.97899	952.77853	28221.25348	28236.87291	13172.45405	1314.82843	995.46667	27983.00000	27998.00000	13066.00000
1323.12177	-3.05867	1144.63236	28908.65323	28922.30898	13470.12555	1321.01880	1021.53333	28673.00000	28688.00000	13365.00000
1329.31613	-3.09133	1234.03610	29584.83896	29597.89480	13770.57811	1327.20917	1308.25000	29362.00000	29374.00000	13675.00000
1335.51048	-2.99976	999.45261	30251.85634	30267.92031	14042.69758	1333.39954	1005.31250	30016.00000	30032.00000	13947.00000
1341.70484	-3.11230	1295.08847	30979.17453	30992.04882	14331.06798	1339.58991	1179.21429	30729.00000	30743.00000	14234.00000
1347.89919	-3.13822	1374.73576	31644.96003	31657.46099	14558.99658	1345.78028	1412.66667	31434.00000	31446.00000	14494.00000
1354.09355	-3.08854	1226.12622	32303.27279	32317.56198	14742.56422	1351.97065	1242.64286	32056.00000	32070.00000	14673.00000
1360.28790	-3.11961	1317.07639	33013.61293	33027.34561	14938.57284	1358.16102	1280.28571	32789.00000	32803.00000	14879.00000
1366.48226	-3.17404	1492.91482	33653.32965	33665.76426	15104.42675	1364.35139	1414.69231	33421.00000	33434.00000	15043.00000
1372.67661	-3.18277	1523.25104	34364.12606	34376.71400	15303.30593	1370.54176	1575.00000	34122.00000	34134.00000	15234.00000
1378.87097	-3.14060	1382.30714	34932.32005	34946.39324	15444.78018	1376.73213	1383.57143	34768.00000	34782.00000	15412.00000
1385.06532	-3.20890	1617.71172	35219.08586	35231.28825	15398.78972	1382.92250	1517.00000	35148.00000	35161.00000	15440.00000
1391.25968	-3.18843	1543.23594	35390.18732	35403.48011	15287.37355	1389.11287	1669.00000	35325.00000	35337.00000	15309.00000
1397.45403	-3.02874	1068.41258	35543.99544	35562.57653	15253.55589	1395.30324	1191.17647	35505.00000	35522.00000	15272.00000
1403.64839	-3.08527	1216.93605	35768.80188	35786.21995	15172.66527	1401.49361	1077.21053	35649.00000	35668.00000	15201.00000
1409.84274	-3.18890	1544.90852	36418.31461	36431.93038	15099.89603	1407.68398	1502.28571	36142.00000	36156.00000	15124.00000
1416.03710	-3.14907	1409.50533	37385.90813	37401.82445	15044.75454	1413.87435	1465.66667	37031.00000	37046.00000	15061.00000
1422.23145	-3.13659	1369.59533	38428.58785	38445.68904	15008.54711	1420.06472	1356.47059	38063.00000	38080.00000	15020.00000
1428.42581	-3.15491	1428.61096	39544.07874	39561.25033	15032.80969	1426.25509	1420.11765	39135.00000	39152.00000	15010.00000
1434.62016	-3.13787	1373.63584	40671.69006	40690.28132	15130.06383	1432.44546	1401.11111	40299.00000	40317.00000	15097.00000
1440.81452	-3.15713	1435.93369	41594.32772	41612.76693	15224.02704	1438.63583	1374.63158	41287.00000	41306.00000	15188.00000
1447.00887	-3.21081	1624.82206	42596.69507	42613.39314	15418.22833	1444.82620	1581.82353	42203.00000	42220.00000	15329.00000
1453.20323	-3.20857	1616.48173	43650.83326	43668.19039	15640.21828	1451.01657	1632.76471	43323.00000	43340.00000	15583.00000
1459.39758	-3.19766	1576.38496	44526.92237	44545.14204	15795.61425	1457.20694	1582.66667	44196.00000	44214.00000	15726.00000
1465.59194	-3.22918	1695.05627	45579.93358	45597.38196	16037.89648	1463.39731	1625.66667	45197.00000	45215.00000	15953.00000
1471.78629	-3.23521	1718.73774	46586.64037	46604.36624	16244.44058	1469.58768	1770.11765	46252.00000	46269.00000	16177.00000
1477.98065	-3.22205	1667.43255	47438.66270	47457.24262	16416.63107	1475.77805	1621.36842	47143.00000	47162.00000	16356.00000
1484.17500	-3.22138	1664.87429	48345.37921	48364.62338	16662.75610	1481.96842	1748.00000	48002.00000	48020.00000	16556.00000
1490.36935	-3.16191	1451.82319	49195.50054	49217.56002	16963.21401	1488.15879	1458.59091	48935.00000	48957.00000	16868.00000
1496.56371	-3.24675	1765.03395	49879.75977	49898.34720	17241.24624	1494.34916	1625.40000	49617.00000	49637.00000	17129.00000
1502.75806	-3.28393	1922.79348	50591.13368	50608.25098	17575.00115	1500.53953	1936.23529	50359.00000	50376.00000	17460.00000
1508.95242	-3.20964	1620.47509	51253.94705	51274.60916	17941.35029	1506.72990	1748.42105	50995.00000	51014.00000	17794.00000
1515.14677	-3.16203	1452.21120	51974.54788	51997.69275	18325.58221	1512.92027	1458.69565	51732.00000	51755.00000	18205.00000
1521.34113	-3.20357	1597.96267	52689.45904	52710.74260	18685.86802	1519.11064	1540.63636	52409.00000	52431.00000	18537.00000
1527.53548	-3.20050	1586.72296	53401.95985	53423.66127	19062.90676	1525.30101	1630.90476	53179.00000	53200.00000	18951.00000
1533.72984	-3.18068	1515.93896	54002.35592	54025.24035	19328.52496	1531.49138	1502.69565	53765.00000	53788.00000	19226.00000
1539.92419	-3.20549	1605.03715	54685.66866	54707.52507	19615.56591	1537.68175	1588.77273	54449.00000	54471.00000	19518.00000
1546.11855	-3.20811	1614.77732	55305.50505	55327.45494	19882.35475	1543.87212	1605.50000	55080.00000	55102.00000	19781.00000
1552.31290	-3.20321	1596.63387	55885.78286	55908.17552	20167.45167	1550.06249	1620.13636	55687.00000	55709.00000	20066.00000
1558.50726	-3.19879	1580.49047	56504.22254	56527.04447	20476.85944	1556.25286	1561.82609	56254.00000	56277.00000	20355.00000
1564.70161	-3.22381	1674.20338	57069.58599	57091.25355	20762.16664	1562.44323	1648.04545	56912.00000	56934.00000	20677.00000
1570.89597	-3.20452	1601.49235	57488.91062	57511.77413	20992.52674	1568.63360	1655.95455	57305.00000	57327.00000	20896.00000
1577.09032	-3.19304	1559.70879	58027.63536	58051.16495	21279.89414	1574.82397	1528.83333	57847.00000	57871.00000	21179.00000
1583.28468	-3.28494	1927.24510	58482.60640	58501.75638	21544.02382	1581.01434	1756.52381	58312.00000	58333.00000	21446.00000
1589.47903	-3.28250	1916.44859	58842.89286	58862.56201	21791.81081	1587.20471	2058.50000	58742.00000	58760.00000	21707.00000
1595.67339	-3.20800	1614.36037	59142.35700	59165.23193	22062.17646	1593.39508	1612.17391	59005.00000	59028.00000	21948.00000
1601.86774	-3.25256	1788.77393	59546.69311	59567.43696	22440.99221	1599.58545	1768.47619	59411.00000	59432.00000	22294.00000
1608.06210	-3.25479	1798.01288	59850.53578	59871.13908	22843.81574	1605.77582	1765.09524	59743.00000	59764.00000	22697.00000
1614.25645	-3.25551	1800.98969	60141.62157	60162.15011	23264.89808	1611.96619	1847.60000	60034.00000	60054.00000	23102.00000
1620.45081	-3.21395	1636.62027	60323.44166	60345.81400	23659.72869	1618.15656	1671.63636	60284.00000	60306.00000	23530.00000
1626.64516	-3.23120	1702.92479	60434.45088	60455.88105	24002.50938	1624.34693	1660.45455	60374.00000	60396.00000	23866.00000
1632.83952	-3.22631	1683.89154	60655.34269	60676.87686	24375.15951	1630.53730	1731.04762	60575.00000	60596.00000	24244.00000
1639.03387	-3.23905	1734.00579	60690.27335	60711.22630	24625.51155	1636.72767	1645.00000	60721.00000	60743.00000	24553.00000
1645.22823	-3.26823	1854.51133	60447.19563	60466.36236	24754.37795	1642.91804	1887.57895	60559.00000	60578.00000	24714.00000
1651.42258	-3.25943	1817.30705	59290.56521	59310.01446	24508.32349	1649.10841	1763.35000	59937.00000	59957.00000	24690.00000
1657.61694	-3.24778	1769.22481	56927.67157	56945.53657	23724.26734	1655.29878	1878.61111	57831.00000	57849.00000	24034.00000
1663.81129	-3.39661	2492.35001	55514.94678	55529.71715	23300.89338	1661.48915	1909.82353	55810.00000	55827.00000	23360.00000
1670.00565	-3.45784	2869.72402	53518.97388	53526.96388	22635.31565	1667.67952	3165.90000	54730.00000	54740.00000	23081.00000
1676.20000	-3.97000	9332.63707	49153.87125	49158.85501	20927.90313	1673.86989	4869.16667	50783.00000	50789.00000	21574.00000
0.00000	0.00000	0.00000	0.00000	0.00000	0.00000	1680.06026	13214.50000	46145.00000	46147.00000	19718.00000
0.00000	0.00000	0.00000	0.00000	0.00000	0.00000	1686.25063	-3874.50000	40818.00000	40812.00000	17565.00000
0.00000	0.00000	0.00000	0.00000	0.00000	0.00000	1692.44100	-3874.50000	40818.00000	40812.00000	17565.00000
