'File 1_2016Ò»ÔÂ27_1244.xls
'Part ID 1
'Scan Created 2016-1-27 12:44:30
'Instrument S1-00205
'Version 1.5.7
'Integration Time 10100 µs
'Number of Scans 50
'Units Absorbance
'Thermistor 40.01
Wavelength	Absorbance	Normalized	100%	dark	Raw 1	Native Wvl	Native Norm	Native 100%	Native dark	Native 1
908.10000	-2.85824	721.49813	3374.18868	3375.40339	2401.39896	906.26400	504.50000	3442.00000	3444.00000	2435.00000
914.29435	-2.86080	725.77352	3185.51697	3187.66666	2305.02188	912.45437	903.00000	3231.00000	3232.00000	2329.00000
920.48871	-2.07277	118.24103	3153.83950	3158.73787	2305.25428	918.64474	171.40000	3140.00000	3145.00000	2288.00000
926.68306	-2.51112	324.43235	3245.71853	3248.37362	2386.26670	924.83511	285.66667	3222.00000	3225.00000	2368.00000
932.87742	-2.44083	275.94696	3347.11849	3350.31829	2451.65937	931.02548	294.66667	3305.00000	3308.00000	2424.00000
939.07177	-2.32294	210.35064	3569.21500	3573.92864	2609.36981	937.21585	235.75000	3492.00000	3496.00000	2553.00000
945.26613	-2.25355	179.28745	3808.01150	3813.78889	2779.07513	943.40622	169.16667	3747.00000	3753.00000	2738.00000
951.46048	-2.50939	323.13785	3975.33779	3978.56387	2892.61351	949.59659	268.25000	3925.00000	3929.00000	2856.00000
957.65484	-2.50454	319.55324	4173.45998	4177.42580	3042.84979	955.78696	372.33333	4108.00000	4111.00000	2994.00000
963.84919	-2.35816	228.11764	4346.60860	4352.14708	3165.34930	961.97733	195.83333	4309.00000	4315.00000	3140.00000
970.04355	-2.64594	442.53200	4488.85036	4491.33061	3273.60553	968.16770	402.33333	4430.00000	4433.00000	3226.00000
976.23790	-2.56945	371.06109	4681.39071	4685.00585	3420.69336	974.35807	416.33333	4637.00000	4640.00000	3391.00000
982.43226	-2.36818	233.44389	4824.97664	4830.30002	3515.36308	980.54844	260.00000	4769.00000	4774.00000	3474.00000
988.62661	-2.52454	334.61194	5044.78557	5049.14418	3684.09717	986.73881	269.80000	4980.00000	4985.00000	3636.00000
994.82097	-2.67022	467.97281	5276.35425	5279.35048	3846.46574	992.92918	469.66667	5197.00000	5200.00000	3791.00000
1001.01532	-2.52255	333.07755	5533.10145	5537.59847	4031.47568	999.11955	371.75000	5462.00000	5466.00000	3979.00000
1007.20968	-2.52494	334.92130	5800.42541	5805.22003	4222.45334	1005.30992	310.60000	5703.00000	5708.00000	4155.00000
1013.40403	-2.63313	429.66842	6100.06762	6103.91265	4437.91631	1011.50029	412.25000	6025.00000	6029.00000	4380.00000
1019.59839	-2.60909	406.52555	6318.34269	6322.53020	4615.04367	1017.69066	422.75000	6243.00000	6247.00000	4556.00000
1025.79274	-2.50660	321.07144	6590.09348	6595.70940	4815.41229	1023.88103	351.40000	6508.00000	6513.00000	4756.00000
1031.98710	-2.39446	248.00654	6856.39546	6863.72132	5010.75075	1030.07140	261.57143	6771.00000	6778.00000	4947.00000
1038.18145	-2.49315	311.27719	7131.33234	7137.69228	5215.15783	1036.26177	271.57143	7049.00000	7056.00000	5155.00000
1044.37581	-2.59891	397.11203	7422.54165	7427.48745	5429.66716	1042.45214	394.60000	7323.00000	7328.00000	5355.00000
1050.57016	-2.49488	312.52498	7753.60670	7760.34346	5680.10888	1048.64251	342.50000	7655.00000	7661.00000	5606.00000
1056.76452	-2.41837	262.03962	8044.95645	8053.03573	5897.55558	1054.83288	266.62500	7956.00000	7964.00000	5831.00000
1062.95887	-2.57184	373.11688	8344.77495	8350.83811	6121.93470	1061.02325	315.00000	8247.00000	8254.00000	6049.00000
1069.15323	-2.62581	422.48203	8649.24482	8654.99124	6345.50244	1067.21362	456.80000	8559.00000	8564.00000	6280.00000
1075.34758	-2.45520	285.23421	8937.85128	8945.90866	6553.63599	1073.40399	295.75000	8843.00000	8851.00000	6485.00000
1081.54194	-2.71142	514.54010	9247.56598	9252.20326	6780.50014	1079.59436	408.00000	9152.00000	9158.00000	6710.00000
1087.73629	-2.73378	541.72900	9570.69311	9576.59718	7025.77406	1085.78473	631.00000	9462.00000	9466.00000	6942.00000
1093.93065	-2.24603	176.20815	9918.24000	9929.83707	7290.57984	1091.97510	237.45455	9813.00000	9824.00000	7212.00000
1100.12500	-2.65649	453.41117	10263.53096	10270.46266	7543.75822	1098.16547	299.77778	10147.00000	10156.00000	7458.00000
1106.31935	-2.81253	649.43024	10652.67119	10657.14925	7838.66897	1104.35584	697.50000	10530.00000	10534.00000	7744.00000
1112.51371	-2.58053	380.65551	11030.17335	11037.49408	8129.60071	1110.54621	411.28571	10911.00000	10918.00000	8039.00000
1118.70806	-2.61716	414.15500	11415.53081	11422.84855	8422.44014	1116.73658	424.42857	11290.00000	11297.00000	8326.00000
1124.90242	-2.62249	419.26722	11825.98417	11833.52157	8736.40040	1122.92695	383.12500	11693.00000	11701.00000	8636.00000
1131.09677	-2.73094	538.19889	12249.90190	12255.75491	9047.52640	1129.11732	528.50000	12114.00000	12120.00000	8949.00000
1137.29113	-2.62389	420.62405	12635.57805	12643.52749	9319.65403	1135.30769	469.71429	12522.00000	12529.00000	9241.00000
1143.48548	-2.62202	418.81112	13027.02284	13035.39725	9587.42740	1141.49806	378.22222	12885.00000	12894.00000	9490.00000
1149.67984	-2.68307	482.02563	13502.54716	13510.16114	9910.72678	1147.68843	507.14286	13354.00000	13361.00000	9811.00000
1155.87419	-2.55142	355.97822	13961.95475	13972.37745	10199.07124	1153.87880	371.20000	13809.00000	13819.00000	10107.00000
1162.06855	-2.61314	410.33213	14471.96322	14481.68877	10501.64119	1160.06917	391.30000	14303.00000	14313.00000	10400.00000
1168.26290	-2.69125	491.18504	14973.17165	14981.59714	10822.27558	1166.25954	456.44444	14819.00000	14828.00000	10720.00000
1174.45726	-2.70751	509.93104	15432.18175	15440.95064	11108.36090	1172.44991	533.50000	15282.00000	15290.00000	11022.00000
1180.65161	-2.56822	370.01270	15907.32325	15918.75818	11350.75928	1178.64028	408.09091	15752.00000	15763.00000	11274.00000
1186.84597	-2.82007	660.80175	16408.50651	16416.67456	11601.88779	1184.83065	473.40000	16240.00000	16250.00000	11516.00000
1193.04032	-2.98339	962.48398	16921.12190	16926.29826	11846.72992	1191.02102	997.80000	16759.00000	16764.00000	11775.00000
1199.23468	-2.74774	559.41943	17423.52159	17432.97346	12031.35822	1197.21139	661.00000	17254.00000	17262.00000	11974.00000
1205.42903	-2.73542	543.77607	17946.70689	17957.42904	12204.16635	1203.40176	513.00000	17779.00000	17790.00000	12147.00000
1211.62339	-2.85786	720.87865	18443.34552	18451.58580	12445.81763	1209.59213	660.11111	18281.00000	18290.00000	12349.00000
1217.81774	-2.84657	702.38307	18976.99658	18985.82782	12900.98969	1215.78250	759.75000	18792.00000	18800.00000	12722.00000
1224.01210	-2.62661	423.26268	19553.19521	19567.00153	13530.74681	1221.97287	504.91667	19367.00000	19379.00000	13320.00000
1230.20645	-2.68463	483.76251	20074.40776	20087.65077	14115.87361	1228.16324	399.26667	19910.00000	19925.00000	13936.00000
1236.40081	-2.81607	654.74077	20599.75229	20608.67123	14645.40643	1234.35361	662.00000	20415.00000	20424.00000	14466.00000
1242.59516	-2.72117	526.22586	21136.51670	21147.89719	15143.96185	1240.54398	544.45455	20973.00000	20984.00000	14995.00000
1248.78952	-2.74221	552.33963	21603.90046	21614.86055	15558.64187	1246.73435	548.81818	21444.00000	21455.00000	15418.00000
1254.98387	-2.75753	572.18127	22139.15349	22149.89524	16016.45174	1252.92472	554.90909	21953.00000	21964.00000	15860.00000
1261.17823	-2.80215	634.08556	22695.73308	22705.54949	16468.55849	1259.11509	620.10000	22516.00000	22526.00000	16325.00000
1267.37258	-2.78926	615.54448	23208.08047	23218.40789	16872.28425	1265.30546	631.00000	23039.00000	23049.00000	16739.00000
1273.56694	-2.76309	579.55230	23771.26894	23782.40498	17325.31396	1271.49583	583.54545	23568.00000	23579.00000	17160.00000
1279.76129	-2.78204	605.39296	24399.03484	24409.86762	17840.26232	1277.68620	593.90909	24194.00000	24205.00000	17672.00000
1285.95565	-2.76216	578.31141	24988.62671	25000.23619	18322.14533	1283.87657	603.72727	24791.00000	24802.00000	18161.00000
1292.15000	-2.70746	509.87428	25587.32745	25600.59759	18809.42991	1290.06694	519.46154	25384.00000	25397.00000	18644.00000
1298.34435	-2.73767	546.60386	26229.53882	26242.22441	19323.82315	1296.25731	528.61538	26005.00000	26018.00000	19146.00000
1304.53871	-2.77829	600.19439	26866.52561	26878.23672	19819.48170	1302.44769	584.41667	26664.00000	26676.00000	19663.00000
1310.73306	-2.75194	564.85397	27500.83127	27513.70993	20309.02761	1308.63806	595.91667	27268.00000	27280.00000	20129.00000
1316.92742	-2.66943	467.11997	28221.25348	28236.87291	20850.72121	1314.82843	488.13333	27983.00000	27998.00000	20676.00000
1323.12177	-2.74938	561.54221	28908.65323	28922.30898	21342.70926	1321.01880	500.93333	28673.00000	28688.00000	21174.00000
1329.31613	-2.78300	606.73310	29584.83896	29597.89480	21814.42301	1327.20917	642.58333	29362.00000	29374.00000	21663.00000
1335.51048	-2.69361	493.86937	30251.85634	30267.92031	22251.20451	1333.39954	495.87500	30016.00000	30032.00000	22098.00000
1341.70484	-2.80917	644.41714	30979.17453	30992.04882	22703.40047	1339.58991	585.00000	30729.00000	30743.00000	22553.00000
1347.89919	-2.83937	690.83512	31644.96003	31657.46099	23062.30289	1345.78028	707.41667	31434.00000	31446.00000	22957.00000
1354.09355	-2.79582	624.90726	32303.27279	32317.56198	23363.12252	1351.97065	629.92857	32056.00000	32070.00000	23251.00000
1360.28790	-2.83334	681.30378	33013.61293	33027.34561	23668.01622	1358.16102	659.00000	32789.00000	32803.00000	23577.00000
1366.48226	-2.89414	783.69064	33653.32965	33665.76426	23925.11411	1364.35139	738.92308	33421.00000	33434.00000	23828.00000
1372.67661	-2.90817	809.41241	34364.12606	34376.71400	24238.55618	1370.54176	833.58333	34122.00000	34134.00000	24131.00000
1378.87097	-2.87206	744.83761	34932.32005	34946.39324	24438.36517	1376.73213	741.71429	34768.00000	34782.00000	24398.00000
1385.06532	-2.94894	889.07513	35219.08586	35231.28825	24336.64282	1382.92250	827.07692	35148.00000	35161.00000	24409.00000
1391.25968	-2.93697	864.90593	35390.18732	35403.48011	24124.06844	1389.11287	930.00000	35325.00000	35337.00000	24177.00000
1397.45403	-2.78309	606.86697	35543.99544	35562.57653	24023.96119	1395.30324	674.05882	35505.00000	35522.00000	24063.00000
1403.64839	-2.84779	704.35608	35768.80188	35786.21995	23869.27778	1401.49361	617.89474	35649.00000	35668.00000	23928.00000
1409.84274	-2.96438	921.25528	36418.31461	36431.93038	23700.76918	1407.68398	885.64286	36142.00000	36156.00000	23757.00000
1416.03710	-2.94066	872.28240	37385.90813	37401.82445	23568.27680	1413.87435	895.80000	37031.00000	37046.00000	23609.00000
1422.23145	-2.94188	874.74009	38428.58785	38445.68904	23479.52172	1420.06472	857.29412	38063.00000	38080.00000	23506.00000
1428.42581	-2.97101	935.42206	39544.07874	39561.25033	23499.17717	1426.25509	922.47059	39135.00000	39152.00000	23470.00000
1434.62016	-2.96212	916.47685	40671.69006	40690.28132	23634.84070	1432.44546	929.38889	40299.00000	40317.00000	23588.00000
1440.81452	-2.98725	971.07455	41594.32772	41612.76693	23770.08350	1438.63583	925.68421	41287.00000	41306.00000	23718.00000
1447.00887	-3.04478	1108.61347	42596.69507	42613.39314	24056.45737	1444.82620	1076.23529	42203.00000	42220.00000	23924.00000
1453.20323	-3.04578	1111.17915	43650.83326	43668.19039	24402.26609	1451.01657	1119.52941	43323.00000	43340.00000	24308.00000
1459.39758	-3.03788	1091.12993	44526.92237	44545.14204	24644.18171	1457.20694	1092.83333	44196.00000	44214.00000	24543.00000
1465.59194	-3.07243	1181.49053	45579.93358	45597.38196	24996.66592	1463.39731	1130.33333	45197.00000	45215.00000	24869.00000
1471.78629	-3.08091	1204.77334	46586.64037	46604.36624	25319.29854	1469.58768	1238.52941	46252.00000	46269.00000	25214.00000
1477.98065	-3.06986	1174.51606	47438.66270	47457.24262	25596.07787	1475.77805	1140.31579	47143.00000	47162.00000	25496.00000
1484.17500	-3.07012	1175.21434	48345.37921	48364.62338	25984.69336	1481.96842	1233.27778	48002.00000	48020.00000	25821.00000
1490.36935	-3.01068	1024.88672	49195.50054	49217.56002	26449.41179	1488.15879	1029.95455	48935.00000	48957.00000	26298.00000
1496.56371	-3.09444	1242.92149	49879.75977	49898.34720	26900.16248	1494.34916	1145.85000	49617.00000	49637.00000	26720.00000
1502.75806	-3.12995	1348.81980	50591.13368	50608.25098	27436.51407	1500.53953	1360.35294	50359.00000	50376.00000	27250.00000
1508.95242	-3.05343	1130.91450	51253.94705	51274.60916	28012.79905	1506.72990	1222.52632	50995.00000	51014.00000	27786.00000
1515.14677	-3.00333	1007.69594	51974.54788	51997.69275	28630.85157	1512.92027	1014.30435	51732.00000	51755.00000	28426.00000
1521.34113	-3.04267	1103.22908	52689.45904	52710.74260	29219.90510	1519.11064	1065.50000	52409.00000	52431.00000	28990.00000
1527.53548	-3.03794	1091.28220	53401.95985	53423.66127	29792.94732	1525.30101	1123.00000	53179.00000	53200.00000	29617.00000
1533.72984	-3.01691	1039.69680	54002.35592	54025.24035	30227.53787	1531.49138	1031.56522	53765.00000	53788.00000	30062.00000
1539.92419	-3.04085	1098.62489	54685.66866	54707.52507	30688.36521	1537.68175	1088.22727	54449.00000	54471.00000	30530.00000
1546.11855	-3.04249	1102.78490	55305.50505	55327.45494	31120.05315	1543.87212	1097.45455	55080.00000	55102.00000	30958.00000
1552.31290	-3.03630	1087.17215	55885.78286	55908.17552	31572.76533	1550.06249	1104.45455	55687.00000	55709.00000	31411.00000
1558.50726	-3.03022	1072.07411	56504.22254	56527.04447	32072.79673	1556.25286	1060.95652	56254.00000	56277.00000	31875.00000
1564.70161	-3.05361	1131.37611	57069.58599	57091.25355	32541.00244	1562.44323	1115.18182	56912.00000	56934.00000	32400.00000
1570.89597	-3.03279	1078.42791	57488.91062	57511.77413	32920.86439	1568.63360	1116.54545	57305.00000	57327.00000	32763.00000
1577.09032	-3.01969	1046.37934	58027.63536	58051.16495	33382.94835	1574.82397	1027.04167	57847.00000	57871.00000	33222.00000
1583.28468	-3.10982	1287.70250	58482.60640	58501.75638	33803.89665	1581.01434	1175.52381	58312.00000	58333.00000	33647.00000
1589.47903	-3.10564	1275.38701	58842.89286	58862.56201	34199.98530	1587.20471	1371.94444	58742.00000	58760.00000	34065.00000
1595.67339	-3.02796	1066.48787	59142.35700	59165.23193	34643.12612	1593.39508	1068.47826	59005.00000	59028.00000	34453.00000
1601.86774	-3.06875	1171.51313	59546.69311	59567.43696	35261.34592	1599.58545	1162.19048	59411.00000	59432.00000	35026.00000
1608.06210	-3.06551	1162.80580	59850.53578	59871.13908	35916.60305	1605.77582	1147.23810	59743.00000	59764.00000	35672.00000
1614.25645	-3.06052	1149.52793	60141.62157	60162.15011	36618.32283	1611.96619	1185.15000	60034.00000	60054.00000	36351.00000
1620.45081	-3.01254	1029.30004	60323.44166	60345.81400	37271.00602	1618.15656	1057.00000	60284.00000	60306.00000	37052.00000
1626.64516	-3.02366	1055.99692	60434.45088	60455.88105	37846.87717	1624.34693	1035.18182	60374.00000	60396.00000	37622.00000
1632.83952	-3.01330	1031.10801	60655.34269	60676.87686	38456.97348	1630.53730	1064.57143	60575.00000	60596.00000	38240.00000
1639.03387	-3.02043	1048.16834	60690.27335	60711.22630	38886.45332	1636.72767	999.27273	60721.00000	60743.00000	38759.00000
1645.22823	-3.04522	1109.73788	60447.19563	60466.36236	39108.40537	1642.91804	1133.47368	60559.00000	60578.00000	39042.00000
1651.42258	-3.03153	1075.29927	59290.56521	59310.01446	38704.09639	1649.10841	1047.85000	59937.00000	59957.00000	39000.00000
1657.61694	-3.01681	1039.45637	56927.67157	56945.53657	37445.77902	1655.29878	1106.05556	57831.00000	57849.00000	37940.00000
1663.81129	-3.16167	1451.01236	55514.94678	55529.71715	36752.30437	1661.48915	1115.70588	55810.00000	55827.00000	36860.00000
1670.00565	-3.22107	1663.66834	53518.97388	53526.96388	35617.78252	1667.67952	1837.90000	54730.00000	54740.00000	36361.00000
1676.20000	-3.73296	5407.06437	49153.87125	49158.85501	32813.51523	1673.86989	2819.66667	50783.00000	50789.00000	33871.00000
0.00000	0.00000	0.00000	0.00000	0.00000	0.00000	1680.06026	7657.50000	46145.00000	46147.00000	30832.00000
0.00000	0.00000	0.00000	0.00000	0.00000	0.00000	1686.25063	-2254.00000	40818.00000	40812.00000	27288.00000
0.00000	0.00000	0.00000	0.00000	0.00000	0.00000	1692.44100	-2254.00000	40818.00000	40812.00000	27288.00000
