'File 2_2016Ò»ÔÂ27_1244.xls
'Part ID 2
'Scan Created 2016-1-27 12:44:42
'Instrument S1-00205
'Version 1.5.7
'Integration Time 10100 µs
'Number of Scans 50
'Units Absorbance
'Thermistor 40.01
Wavelength	Absorbance	Normalized	100%	dark	Raw 1	Native Wvl	Native Norm	Native 100%	Native dark	Native 1
908.10000	-2.86515	733.07862	3374.18868	3375.40339	2386.47331	906.26400	511.50000	3442.00000	3444.00000	2421.00000
914.29435	-2.86848	738.72057	3185.51697	3187.66666	2289.42749	912.45437	919.00000	3231.00000	3232.00000	2313.00000
920.48871	-2.07926	120.02186	3153.83950	3158.73787	2291.43560	918.64474	174.20000	3140.00000	3145.00000	2274.00000
926.68306	-2.51904	330.40308	3245.71853	3248.37362	2370.25364	924.83511	290.66667	3222.00000	3225.00000	2353.00000
932.87742	-2.44963	281.59906	3347.11849	3350.31829	2433.51985	931.02548	300.66667	3305.00000	3308.00000	2406.00000
939.07177	-2.33197	214.76923	3569.21500	3573.92864	2588.69853	937.21585	240.50000	3492.00000	3496.00000	2534.00000
945.26613	-2.26414	183.71406	3808.01150	3813.78889	2753.55174	943.40622	173.33333	3747.00000	3753.00000	2713.00000
951.46048	-2.51944	330.70290	3975.33779	3978.56387	2867.38143	949.59659	274.50000	3925.00000	3929.00000	2831.00000
957.65484	-2.51504	327.36899	4173.45998	4177.42580	3015.00407	955.78696	381.33333	4108.00000	4111.00000	2967.00000
963.84919	-2.36854	233.63855	4346.60860	4352.14708	3136.39966	961.97733	200.66667	4309.00000	4315.00000	3111.00000
970.04355	-2.65644	453.35635	4488.85036	4491.33061	3243.84551	968.16770	412.00000	4430.00000	4433.00000	3197.00000
976.23790	-2.58049	380.61651	4681.39071	4685.00585	3388.26767	974.35807	427.00000	4637.00000	4640.00000	3359.00000
982.43226	-2.37914	239.40600	4824.97664	4830.30002	3481.62324	980.54844	266.60000	4769.00000	4774.00000	3441.00000
988.62661	-2.53608	343.61903	5044.78557	5049.14418	3647.35852	986.73881	277.00000	4980.00000	4985.00000	3600.00000
994.82097	-2.68177	480.58773	5276.35425	5279.35048	3807.83696	992.92918	482.33333	5197.00000	5200.00000	3753.00000
1001.01532	-2.53405	342.01649	5533.10145	5537.59847	3991.09146	999.11955	381.75000	5462.00000	5466.00000	3939.00000
1007.20968	-2.53613	343.66032	5800.42541	5805.22003	4181.08719	1005.30992	318.80000	5703.00000	5708.00000	4114.00000
1013.40403	-2.64451	441.07529	6100.06762	6103.91265	4393.68957	1011.50029	423.00000	6025.00000	6029.00000	4337.00000
1019.59839	-2.62107	417.90112	6318.34269	6322.53020	4567.32982	1017.69066	434.50000	6243.00000	6247.00000	4509.00000
1025.79274	-2.51860	330.06478	6590.09348	6595.70940	4765.42980	1023.88103	361.20000	6508.00000	6513.00000	4707.00000
1031.98710	-2.40653	254.99469	6856.39546	6863.72132	4958.59525	1030.07140	269.00000	6771.00000	6778.00000	4895.00000
1038.18145	-2.50487	319.79368	7131.33234	7137.69228	5162.66198	1036.26177	279.00000	7049.00000	7056.00000	5103.00000
1044.37581	-2.61099	408.30624	7422.54165	7427.48745	5373.20610	1042.45214	405.60000	7323.00000	7328.00000	5300.00000
1050.57016	-2.50713	321.46551	7753.60670	7760.34346	5620.75469	1048.64251	352.33333	7655.00000	7661.00000	5547.00000
1056.76452	-2.43050	269.46352	8044.95645	8053.03573	5836.45428	1054.83288	274.12500	7956.00000	7964.00000	5771.00000
1062.95887	-2.58425	383.93000	8344.77495	8350.83811	6057.28852	1061.02325	324.14286	8247.00000	8254.00000	5985.00000
1069.15323	-2.63828	434.79487	8649.24482	8654.99124	6278.02389	1067.21362	470.00000	8559.00000	8564.00000	6214.00000
1075.34758	-2.46755	293.46232	8937.85128	8945.90866	6484.21655	1073.40399	304.50000	8843.00000	8851.00000	6415.00000
1081.54194	-2.72354	529.10391	9247.56598	9252.20326	6711.11301	1079.59436	419.33333	9152.00000	9158.00000	6642.00000
1087.73629	-2.74637	557.65483	9570.69311	9576.59718	6950.99324	1085.78473	649.50000	9462.00000	9466.00000	6868.00000
1093.93065	-2.25819	181.21219	9918.24000	9929.83707	7214.71168	1091.97510	244.27273	9813.00000	9824.00000	7137.00000
1100.12500	-2.66912	466.79324	10263.53096	10270.46266	7463.46777	1098.16547	308.55556	10147.00000	10156.00000	7379.00000
1106.31935	-2.82533	668.85621	10652.67119	10657.14925	7754.06914	1104.35584	718.25000	10530.00000	10534.00000	7661.00000
1112.51371	-2.59368	392.35447	11030.17335	11037.49408	8040.52086	1110.54621	423.85714	10911.00000	10918.00000	7951.00000
1118.70806	-2.63029	426.86569	11415.53081	11422.84855	8330.24197	1116.73658	437.42857	11290.00000	11297.00000	8235.00000
1124.90242	-2.63575	432.26205	11825.98417	11833.52157	8640.37768	1122.92695	395.00000	11693.00000	11701.00000	8541.00000
1131.09677	-2.74388	554.47187	12249.90190	12255.75491	8950.68545	1129.11732	544.66667	12114.00000	12120.00000	8852.00000
1137.29113	-2.63650	433.01566	12635.57805	12643.52749	9221.50536	1135.30769	483.57143	12522.00000	12529.00000	9144.00000
1143.48548	-2.63489	431.40790	13027.02284	13035.39725	9483.71077	1141.49806	389.55556	12885.00000	12894.00000	9388.00000
1149.67984	-2.69574	496.29395	13502.54716	13510.16114	9804.45180	1147.68843	522.28571	13354.00000	13361.00000	9705.00000
1155.87419	-2.56369	366.17565	13961.95475	13972.37745	10090.76063	1153.87880	381.90000	13809.00000	13819.00000	10000.00000
1162.06855	-2.62534	422.02304	14471.96322	14481.68877	10388.27496	1160.06917	402.50000	14303.00000	14313.00000	10288.00000
1168.26290	-2.70337	505.08636	14973.17165	14981.59714	10704.57580	1166.25954	469.33333	14819.00000	14828.00000	10604.00000
1174.45726	-2.71955	524.26368	15432.18175	15440.95064	10986.64523	1172.44991	548.62500	15282.00000	15290.00000	10901.00000
1180.65161	-2.57970	379.92266	15907.32325	15918.75818	11228.61346	1178.64028	419.18182	15752.00000	15763.00000	11152.00000
1186.84597	-2.83108	677.76574	16408.50651	16416.67456	11478.13335	1184.83065	485.70000	16240.00000	16250.00000	11393.00000
1193.04032	-2.99432	987.00074	16921.12190	16926.29826	11717.05115	1191.02102	1023.20000	16759.00000	16764.00000	11648.00000
1199.23468	-2.75840	573.32574	17423.52159	17432.97346	11897.52545	1197.21139	677.75000	17254.00000	17262.00000	11840.00000
1205.42903	-2.74530	556.28587	17946.70689	17957.42904	12071.67264	1203.40176	525.00000	17779.00000	17790.00000	12015.00000
1211.62339	-2.86756	737.16083	18443.34552	18451.58580	12310.24249	1209.59213	675.11111	18281.00000	18290.00000	12214.00000
1217.81774	-2.85637	718.40199	18976.99658	18985.82782	12761.97031	1215.78250	776.87500	18792.00000	18800.00000	12585.00000
1224.01210	-2.63695	433.45607	19553.19521	19567.00153	13385.14801	1221.97287	516.91667	19367.00000	19379.00000	13176.00000
1230.20645	-2.69562	496.16277	20074.40776	20087.65077	13963.86395	1228.16324	409.20000	19910.00000	19925.00000	13787.00000
1236.40081	-2.82748	672.17304	20599.75229	20608.67123	14486.27104	1234.35361	679.55556	20415.00000	20424.00000	14308.00000
1242.59516	-2.73271	540.39226	21136.51670	21147.89719	14982.50148	1240.54398	559.00000	20973.00000	20984.00000	14835.00000
1248.78952	-2.75409	567.66396	21603.90046	21614.86055	15390.49155	1246.73435	563.90909	21444.00000	21455.00000	15252.00000
1254.98387	-2.76968	588.40626	22139.15349	22149.89524	15842.59839	1252.92472	570.54545	21953.00000	21964.00000	15688.00000
1261.17823	-2.81437	652.18470	22695.73308	22705.54949	16290.51613	1259.11509	637.80000	22516.00000	22526.00000	16148.00000
1267.37258	-2.80150	633.14303	23208.08047	23218.40789	16690.82706	1265.30546	649.00000	23039.00000	23049.00000	16559.00000
1273.56694	-2.77547	596.31388	23771.26894	23782.40498	17138.57487	1271.49583	600.36364	23568.00000	23579.00000	16975.00000
1279.76129	-2.79453	623.05335	24399.03484	24409.86762	17648.63883	1277.68620	611.18182	24194.00000	24205.00000	17482.00000
1285.95565	-2.77478	595.35458	24988.62671	25000.23619	18125.28393	1283.87657	621.45455	24791.00000	24802.00000	17966.00000
1292.15000	-2.72028	525.14494	25587.32745	25600.59759	18606.11400	1290.06694	534.92308	25384.00000	25397.00000	18443.00000
1298.34435	-2.75052	563.01765	26229.53882	26242.22441	19115.98925	1296.25731	544.53846	26005.00000	26018.00000	18939.00000
1304.53871	-2.79105	618.09151	26866.52561	26878.23672	19609.10029	1302.44769	601.83333	26664.00000	26676.00000	19454.00000
1310.73306	-2.76488	581.93674	27500.83127	27513.70993	20090.98340	1308.63806	613.83333	27268.00000	27280.00000	19914.00000
1316.92742	-2.68241	481.29509	28221.25348	28236.87291	20626.65147	1314.82843	503.00000	27983.00000	27998.00000	20453.00000
1323.12177	-2.76228	578.47188	28908.65323	28922.30898	21114.21715	1321.01880	516.00000	28673.00000	28688.00000	20948.00000
1329.31613	-2.79584	624.93685	29584.83896	29597.89480	21581.31829	1327.20917	662.00000	29362.00000	29374.00000	21430.00000
1335.51048	-2.70618	508.36601	30251.85634	30267.92031	22015.76911	1333.39954	510.43750	30016.00000	30032.00000	21865.00000
1341.70484	-2.82175	663.36804	30979.17453	30992.04882	22459.45162	1339.58991	602.28571	30729.00000	30743.00000	22311.00000
1347.89919	-2.85171	710.74156	31644.96003	31657.46099	22814.76380	1345.78028	727.91667	31434.00000	31446.00000	22711.00000
1354.09355	-2.80776	642.33646	32303.27279	32317.56198	23113.21674	1351.97065	647.78571	32056.00000	32070.00000	23001.00000
1360.28790	-2.84477	699.47898	33013.61293	33027.34561	23418.45399	1358.16102	676.78571	32789.00000	32803.00000	23328.00000
1366.48226	-2.90539	804.24762	33653.32965	33665.76426	23669.48101	1364.35139	758.38462	33421.00000	33434.00000	23575.00000
1372.67661	-2.91922	830.26582	34364.12606	34376.71400	23977.59314	1370.54176	855.25000	34122.00000	34134.00000	23871.00000
1378.87097	-2.88271	763.32113	34932.32005	34946.39324	24177.51458	1376.73213	760.35714	34768.00000	34782.00000	24137.00000
1385.06532	-2.95922	910.38162	35219.08586	35231.28825	24075.28890	1382.92250	847.15385	35148.00000	35161.00000	24148.00000
1391.25968	-2.94687	884.85025	35390.18732	35403.48011	23864.50362	1389.11287	951.75000	35325.00000	35337.00000	23916.00000
1397.45403	-2.79266	620.38077	35543.99544	35562.57653	23766.71943	1395.30324	689.17647	35505.00000	35522.00000	23806.00000
1403.64839	-2.85721	719.79827	35768.80188	35786.21995	23607.64676	1401.49361	631.57895	35649.00000	35668.00000	23668.00000
1409.84274	-2.97317	940.09076	36418.31461	36431.93038	23441.02143	1407.68398	904.35714	36142.00000	36156.00000	23495.00000
1416.03710	-2.94857	888.31905	37385.90813	37401.82445	23313.69427	1413.87435	912.80000	37031.00000	37046.00000	23354.00000
1422.23145	-2.94925	889.71002	38428.58785	38445.68904	23223.33757	1420.06472	872.35294	38063.00000	38080.00000	23250.00000
1428.42581	-2.97789	950.36168	39544.07874	39561.25033	23242.68444	1426.25509	937.52941	39135.00000	39152.00000	23214.00000
1434.62016	-2.96866	930.37660	40671.69006	40690.28132	23376.28245	1432.44546	943.72222	40299.00000	40317.00000	23330.00000
1440.81452	-2.99351	985.16725	41594.32772	41612.76693	23510.97538	1438.63583	939.31579	41287.00000	41306.00000	23459.00000
1447.00887	-3.05085	1124.22286	42596.69507	42613.39314	23795.24754	1444.82620	1091.52941	42203.00000	42220.00000	23664.00000
1453.20323	-3.05167	1126.33650	43650.83326	43668.19039	24139.45676	1451.01657	1135.00000	43323.00000	43340.00000	24045.00000
1459.39758	-3.04362	1105.66270	44526.92237	44545.14204	24379.21824	1457.20694	1107.44444	44196.00000	44214.00000	24280.00000
1465.59194	-3.07802	1196.78277	45579.93358	45597.38196	24729.76551	1463.39731	1145.22222	45197.00000	45215.00000	24601.00000
1471.78629	-3.08628	1219.77409	46586.64037	46604.36624	25054.39259	1469.58768	1254.05882	46252.00000	46269.00000	24950.00000
1477.98065	-3.07520	1189.03958	47438.66270	47457.24262	25325.61820	1475.77805	1154.47368	47143.00000	47162.00000	25227.00000
1484.17500	-3.07539	1189.56411	48345.37921	48364.62338	25711.52384	1481.96842	1248.38889	48002.00000	48020.00000	25549.00000
1490.36935	-3.01594	1037.38739	49195.50054	49217.56002	26171.72713	1488.15879	1042.50000	48935.00000	48957.00000	26022.00000
1496.56371	-3.09971	1258.08213	49879.75977	49898.34720	26619.59303	1494.34916	1159.85000	49617.00000	49637.00000	26440.00000
1502.75806	-3.13524	1365.34716	50591.13368	50608.25098	27152.52915	1500.53953	1376.94118	50359.00000	50376.00000	26968.00000
1508.95242	-3.05880	1144.98529	51253.94705	51274.60916	27723.44063	1506.72990	1237.68421	50995.00000	51014.00000	27498.00000
1515.14677	-3.00878	1020.41351	51974.54788	51997.69275	28336.03996	1512.92027	1027.00000	51732.00000	51755.00000	28134.00000
1521.34113	-3.04816	1117.26422	52689.45904	52710.74260	28920.99167	1519.11064	1079.09091	52409.00000	52431.00000	28691.00000
1527.53548	-3.04341	1105.11551	53401.95985	53423.66127	29493.29542	1525.30101	1137.19048	53179.00000	53200.00000	29319.00000
1533.72984	-3.02249	1053.14597	54002.35592	54025.24035	29919.80499	1531.49138	1044.82609	53765.00000	53788.00000	29757.00000
1539.92419	-3.04650	1113.01006	54685.66866	54707.52507	30373.80848	1537.68175	1102.40909	54449.00000	54471.00000	30218.00000
1546.11855	-3.04817	1117.29926	55305.50505	55327.45494	30801.47322	1543.87212	1111.90909	55080.00000	55102.00000	30640.00000
1552.31290	-3.04197	1101.47449	55885.78286	55908.17552	31252.56789	1550.06249	1118.95455	55687.00000	55709.00000	31092.00000
1558.50726	-3.03599	1086.39543	56504.22254	56527.04447	31746.17687	1556.25286	1075.04348	56254.00000	56277.00000	31551.00000
1564.70161	-3.05941	1146.60484	57069.58599	57091.25355	32210.55608	1562.44323	1130.18182	56912.00000	56934.00000	32070.00000
1570.89597	-3.03863	1093.01640	57488.91062	57511.77413	32588.11986	1568.63360	1131.59091	57305.00000	57327.00000	32432.00000
1577.09032	-3.02562	1060.75730	58027.63536	58051.16495	33044.03357	1574.82397	1041.08333	57847.00000	57871.00000	32885.00000
1583.28468	-3.11579	1305.52614	58482.60640	58501.75638	33462.12398	1581.01434	1191.76190	58312.00000	58333.00000	33306.00000
1589.47903	-3.11165	1293.15951	58842.89286	58862.56201	33856.04928	1587.20471	1391.00000	58742.00000	58760.00000	33722.00000
1595.67339	-3.03407	1081.61477	59142.35700	59165.23193	34295.67579	1593.39508	1083.52174	59005.00000	59028.00000	34107.00000
1601.86774	-3.07502	1188.55668	59546.69311	59567.43696	34907.38400	1599.58545	1178.90476	59411.00000	59432.00000	34675.00000
1608.06210	-3.07201	1180.34462	59850.53578	59871.13908	35555.59951	1605.77582	1164.33333	59743.00000	59764.00000	35313.00000
1614.25645	-3.06722	1167.40386	60141.62157	60162.15011	36251.92233	1611.96619	1203.35000	60034.00000	60054.00000	35987.00000
1620.45081	-3.01947	1045.84171	60323.44166	60345.81400	36900.24731	1618.15656	1073.81818	60284.00000	60306.00000	36682.00000
1626.64516	-3.03080	1073.49050	60434.45088	60455.88105	37472.55629	1624.34693	1052.09091	60374.00000	60396.00000	37250.00000
1632.83952	-3.02072	1048.87385	60655.34269	60676.87686	38073.75076	1630.53730	1082.66667	60575.00000	60596.00000	37860.00000
1639.03387	-3.02809	1066.81138	60690.27335	60711.22630	38498.60590	1636.72767	1016.86364	60721.00000	60743.00000	38372.00000
1645.22823	-3.05304	1129.88797	60447.19563	60466.36236	38720.47719	1642.91804	1153.89474	60559.00000	60578.00000	38654.00000
1651.42258	-3.03945	1095.09673	59290.56521	59310.01446	38324.09794	1649.10841	1067.10000	59937.00000	59957.00000	38615.00000
1657.61694	-3.02482	1058.81753	56927.67157	56945.53657	37085.38586	1655.29878	1126.50000	57831.00000	57849.00000	37572.00000
1663.81129	-3.16938	1477.00565	55514.94678	55529.71715	36409.16060	1661.48915	1136.23529	55810.00000	55827.00000	36511.00000
1670.00565	-3.22896	1694.17594	53518.97388	53526.96388	35306.00095	1667.67952	1870.70000	54730.00000	54740.00000	36033.00000
1676.20000	-3.73957	5489.98736	49153.87125	49158.85501	32553.19790	1673.86989	2866.16667	50783.00000	50789.00000	33592.00000
0.00000	0.00000	0.00000	0.00000	0.00000	0.00000	1680.06026	7771.50000	46145.00000	46147.00000	30604.00000
0.00000	0.00000	0.00000	0.00000	0.00000	0.00000	1686.25063	-2283.16667	40818.00000	40812.00000	27113.00000
0.00000	0.00000	0.00000	0.00000	0.00000	0.00000	1692.44100	-2283.16667	40818.00000	40812.00000	27113.00000
