'File 3_2016Ò»ÔÂ27_1244.xls
'Part ID 3
'Scan Created 2016-1-27 12:44:43
'Instrument S1-00205
'Version 1.5.7
'Integration Time 10100 µs
'Number of Scans 50
'Units Absorbance
'Thermistor 40.01
Wavelength	Absorbance	Normalized	100%	dark	Raw 1	Native Wvl	Native Norm	Native 100%	Native dark	Native 1
908.10000	-2.86469	732.30298	3374.18868	3375.40339	2387.56167	906.26400	511.00000	3442.00000	3444.00000	2422.00000
914.29435	-2.86803	737.95418	3185.51697	3187.66666	2290.16336	912.45437	918.00000	3231.00000	3232.00000	2314.00000
920.48871	-2.07969	120.14148	3153.83950	3158.73787	2291.29925	918.64474	174.20000	3140.00000	3145.00000	2274.00000
926.68306	-2.51897	330.34410	3245.71853	3248.37362	2370.41029	924.83511	290.66667	3222.00000	3225.00000	2353.00000
932.87742	-2.44982	281.72219	3347.11849	3350.31829	2433.00193	931.02548	300.66667	3305.00000	3308.00000	2406.00000
939.07177	-2.33213	214.84778	3569.21500	3573.92864	2588.58362	937.21585	240.75000	3492.00000	3496.00000	2533.00000
945.26613	-2.26356	183.46606	3808.01150	3813.78889	2755.16388	943.40622	173.00000	3747.00000	3753.00000	2715.00000
951.46048	-2.51918	330.50382	3975.33779	3978.56387	2867.83840	949.59659	274.50000	3925.00000	3929.00000	2831.00000
957.65484	-2.51442	326.90427	4173.45998	4177.42580	3016.43324	955.78696	380.66667	4108.00000	4111.00000	2969.00000
963.84919	-2.36792	233.30205	4346.60860	4352.14708	3137.40957	961.97733	200.66667	4309.00000	4315.00000	3111.00000
970.04355	-2.65527	452.13346	4488.85036	4491.33061	3247.47744	968.16770	410.66667	4430.00000	4433.00000	3201.00000
976.23790	-2.58027	380.42412	4681.39071	4685.00585	3389.01404	974.35807	426.66667	4637.00000	4640.00000	3360.00000
982.43226	-2.37824	238.91235	4824.97664	4830.30002	3484.18126	980.54844	266.20000	4769.00000	4774.00000	3443.00000
988.62661	-2.53527	342.97957	5044.78557	5049.14418	3650.14868	986.73881	276.40000	4980.00000	4985.00000	3603.00000
994.82097	-2.68121	479.96892	5276.35425	5279.35048	3809.64420	992.92918	481.66667	5197.00000	5200.00000	3755.00000
1001.01532	-2.53340	341.50734	5533.10145	5537.59847	3993.43716	999.11955	381.25000	5462.00000	5466.00000	3941.00000
1007.20968	-2.53536	343.04856	5800.42541	5805.22003	4184.01088	1005.30992	318.20000	5703.00000	5708.00000	4117.00000
1013.40403	-2.64413	440.68687	6100.06762	6103.91265	4395.13996	1011.50029	422.50000	6025.00000	6029.00000	4339.00000
1019.59839	-2.62072	417.55995	6318.34269	6322.53020	4568.84852	1017.69066	434.25000	6243.00000	6247.00000	4510.00000
1025.79274	-2.51784	329.49140	6590.09348	6595.70940	4768.50907	1023.88103	360.60000	6508.00000	6513.00000	4710.00000
1031.98710	-2.40625	254.83075	6856.39546	6863.72132	4959.88360	1030.07140	268.71429	6771.00000	6778.00000	4897.00000
1038.18145	-2.50491	319.82106	7131.33234	7137.69228	5162.44587	1036.26177	279.00000	7049.00000	7056.00000	5103.00000
1044.37581	-2.61094	408.26156	7422.54165	7427.48745	5373.47081	1042.45214	405.60000	7323.00000	7328.00000	5300.00000
1050.57016	-2.50685	321.25767	7753.60670	7760.34346	5622.07461	1048.64251	352.16667	7655.00000	7661.00000	5548.00000
1056.76452	-2.43055	269.49269	8044.95645	8053.03573	5836.52019	1054.83288	274.00000	7956.00000	7964.00000	5772.00000
1062.95887	-2.58412	383.80889	8344.77495	8350.83811	6057.52493	1061.02325	324.28571	8247.00000	8254.00000	5984.00000
1069.15323	-2.63748	433.98699	8649.24482	8654.99124	6282.48428	1067.21362	469.20000	8559.00000	8564.00000	6218.00000
1075.34758	-2.46724	293.25111	8937.85128	8945.90866	6486.27986	1073.40399	304.12500	8843.00000	8851.00000	6418.00000
1081.54194	-2.72330	528.81189	9247.56598	9252.20326	6712.40271	1079.59436	419.16667	9152.00000	9158.00000	6643.00000
1087.73629	-2.74606	557.25656	9570.69311	9576.59718	6952.53162	1085.78473	649.00000	9462.00000	9466.00000	6870.00000
1093.93065	-2.25838	181.29180	9918.24000	9929.83707	7214.61557	1091.97510	244.27273	9813.00000	9824.00000	7137.00000
1100.12500	-2.66880	466.44934	10263.53096	10270.46266	7465.20414	1098.16547	308.44444	10147.00000	10156.00000	7380.00000
1106.31935	-2.82486	668.13423	10652.67119	10657.14925	7757.27398	1104.35584	717.50000	10530.00000	10534.00000	7664.00000
1112.51371	-2.59328	391.99862	11030.17335	11037.49408	8043.29454	1110.54621	423.42857	10911.00000	10918.00000	7954.00000
1118.70806	-2.63008	426.65594	11415.53081	11422.84855	8331.71678	1116.73658	437.14286	11290.00000	11297.00000	8237.00000
1124.90242	-2.63552	432.03770	11825.98417	11833.52157	8641.89275	1122.92695	394.87500	11693.00000	11701.00000	8542.00000
1131.09677	-2.74348	553.96097	12249.90190	12255.75491	8953.83009	1129.11732	544.16667	12114.00000	12120.00000	8855.00000
1137.29113	-2.63637	432.88313	12635.57805	12643.52749	9222.51273	1135.30769	483.28571	12522.00000	12529.00000	9146.00000
1143.48548	-2.63476	431.28243	13027.02284	13035.39725	9484.54489	1141.49806	389.55556	12885.00000	12894.00000	9388.00000
1149.67984	-2.69540	495.90419	13502.54716	13510.16114	9807.28711	1147.68843	521.85714	13354.00000	13361.00000	9708.00000
1155.87419	-2.56366	366.14867	13961.95475	13972.37745	10091.22819	1153.87880	381.80000	13809.00000	13819.00000	10001.00000
1162.06855	-2.62511	421.80648	14471.96322	14481.68877	10390.29573	1160.06917	402.40000	14303.00000	14313.00000	10289.00000
1168.26290	-2.70296	504.61906	14973.17165	14981.59714	10708.63508	1166.25954	468.88889	14819.00000	14828.00000	10608.00000
1174.45726	-2.71929	523.95024	15432.18175	15440.95064	10989.20484	1172.44991	548.25000	15282.00000	15290.00000	10904.00000
1180.65161	-2.57956	379.80061	15907.32325	15918.75818	11230.40435	1178.64028	419.00000	15752.00000	15763.00000	11154.00000
1186.84597	-2.83082	677.35545	16408.50651	16416.67456	11480.78869	1184.83065	485.50000	16240.00000	16250.00000	11395.00000
1193.04032	-2.99399	986.24897	16921.12190	16926.29826	11721.05549	1191.02102	1022.40000	16759.00000	16764.00000	11652.00000
1199.23468	-2.75822	573.08109	17423.52159	17432.97346	11899.97533	1197.21139	677.37500	17254.00000	17262.00000	11843.00000
1205.42903	-2.74512	556.06198	17946.70689	17957.42904	12073.97883	1203.40176	524.81818	17779.00000	17790.00000	12017.00000
1211.62339	-2.86736	736.81122	18443.34552	18451.58580	12313.10647	1209.59213	674.77778	18281.00000	18290.00000	12217.00000
1217.81774	-2.85611	717.97559	18976.99658	18985.82782	12765.97699	1215.78250	776.50000	18792.00000	18800.00000	12588.00000
1224.01210	-2.63668	433.19577	19553.19521	19567.00153	13388.55498	1221.97287	516.50000	19367.00000	19379.00000	13181.00000
1230.20645	-2.69554	496.06114	20074.40776	20087.65077	13964.55823	1228.16324	409.20000	19910.00000	19925.00000	13787.00000
1236.40081	-2.82719	671.72267	20599.75229	20608.67123	14490.53833	1234.35361	679.11111	20415.00000	20424.00000	14312.00000
1242.59516	-2.73251	540.14831	21136.51670	21147.89719	14985.28809	1240.54398	558.72727	20973.00000	20984.00000	14838.00000
1248.78952	-2.75389	567.40237	21603.90046	21614.86055	15393.37696	1246.73435	563.63636	21444.00000	21455.00000	15255.00000
1254.98387	-2.76942	588.05171	22139.15349	22149.89524	15846.34504	1252.92472	570.27273	21953.00000	21964.00000	15691.00000
1261.17823	-2.81406	651.72283	22695.73308	22705.54949	16295.08186	1259.11509	637.30000	22516.00000	22526.00000	16153.00000
1267.37258	-2.80131	632.86205	23208.08047	23218.40789	16693.74240	1265.30546	648.70000	23039.00000	23049.00000	16562.00000
1273.56694	-2.77517	595.89302	23771.26894	23782.40498	17143.24043	1271.49583	600.00000	23568.00000	23579.00000	16979.00000
1279.76129	-2.79425	622.65581	24399.03484	24409.86762	17652.95425	1277.68620	610.72727	24194.00000	24205.00000	17487.00000
1285.95565	-2.77457	595.07604	24988.62671	25000.23619	18128.56567	1283.87657	621.18182	24791.00000	24802.00000	17969.00000
1292.15000	-2.72007	524.89348	25587.32745	25600.59759	18609.45186	1290.06694	534.61538	25384.00000	25397.00000	18447.00000
1298.34435	-2.75036	562.80885	26229.53882	26242.22441	19118.59503	1296.25731	544.38462	26005.00000	26018.00000	18941.00000
1304.53871	-2.79085	617.80823	26866.52561	26878.23672	19612.39644	1302.44769	601.50000	26664.00000	26676.00000	19458.00000
1310.73306	-2.76470	581.70150	27500.83127	27513.70993	20094.21068	1308.63806	613.66667	27268.00000	27280.00000	19916.00000
1316.92742	-2.68210	480.94650	28221.25348	28236.87291	20632.03418	1314.82843	502.60000	27983.00000	27998.00000	20459.00000
1323.12177	-2.76209	578.21724	28908.65323	28922.30898	21117.52791	1321.01880	515.80000	28673.00000	28688.00000	20951.00000
1329.31613	-2.79557	624.55989	29584.83896	29597.89480	21586.05270	1327.20917	661.58333	29362.00000	29374.00000	21435.00000
1335.51048	-2.70605	508.21455	30251.85634	30267.92031	22018.36528	1333.39954	510.25000	30016.00000	30032.00000	21868.00000
1341.70484	-2.82158	663.09388	30979.17453	30992.04882	22462.94678	1339.58991	602.07143	30729.00000	30743.00000	22314.00000
1347.89919	-2.85153	710.44316	31644.96003	31657.46099	22818.44185	1345.78028	727.58333	31434.00000	31446.00000	22715.00000
1354.09355	-2.80761	642.11173	32303.27279	32317.56198	23116.42633	1351.97065	647.57143	32056.00000	32070.00000	23004.00000
1360.28790	-2.84470	699.36559	33013.61293	33027.34561	23420.09815	1358.16102	676.57143	32789.00000	32803.00000	23331.00000
1366.48226	-2.90532	804.11665	33653.32965	33665.76426	23670.98970	1364.35139	758.38462	33421.00000	33434.00000	23575.00000
1372.67661	-2.91902	829.89272	34364.12606	34376.71400	23982.17149	1370.54176	854.83333	34122.00000	34134.00000	23876.00000
1378.87097	-2.88263	763.19065	34932.32005	34946.39324	24179.39616	1376.73213	760.21429	34768.00000	34782.00000	24139.00000
1385.06532	-2.95911	910.14193	35219.08586	35231.28825	24078.29790	1382.92250	846.92308	35148.00000	35161.00000	24151.00000
1391.25968	-2.94681	884.73244	35390.18732	35403.48011	23865.94847	1389.11287	951.58333	35325.00000	35337.00000	23918.00000
1397.45403	-2.79262	620.32180	35543.99544	35562.57653	23767.93478	1395.30324	689.11765	35505.00000	35522.00000	23807.00000
1403.64839	-2.85713	719.65655	35768.80188	35786.21995	23609.98233	1401.49361	631.47368	35649.00000	35668.00000	23670.00000
1409.84274	-2.97306	939.84517	36418.31461	36431.93038	23444.51024	1407.68398	904.14286	36142.00000	36156.00000	23498.00000
1416.03710	-2.94853	888.23453	37385.90813	37401.82445	23314.91070	1413.87435	912.60000	37031.00000	37046.00000	23357.00000
1422.23145	-2.94930	889.82449	38428.58785	38445.68904	23221.42377	1420.06472	872.47059	38063.00000	38080.00000	23248.00000
1428.42581	-2.97787	950.32998	39544.07874	39561.25033	23243.20719	1426.25509	937.52941	39135.00000	39152.00000	23214.00000
1434.62016	-2.96862	930.28703	40671.69006	40690.28132	23377.97878	1432.44546	943.66667	40299.00000	40317.00000	23331.00000
1440.81452	-2.99344	985.00163	41594.32772	41612.76693	23514.02497	1438.63583	939.15789	41287.00000	41306.00000	23462.00000
1447.00887	-3.05083	1124.15747	42596.69507	42613.39314	23796.33415	1444.82620	1091.41176	42203.00000	42220.00000	23666.00000
1453.20323	-3.05172	1126.46274	43650.83326	43668.19039	24137.25763	1451.01657	1135.05882	43323.00000	43340.00000	24044.00000
1459.39758	-3.04361	1105.63587	44526.92237	44545.14204	24379.66542	1457.20694	1107.55556	44196.00000	44214.00000	24278.00000
1465.59194	-3.07797	1196.65133	45579.93358	45597.38196	24732.22463	1463.39731	1145.00000	45197.00000	45215.00000	24605.00000
1471.78629	-3.08637	1220.02238	46586.64037	46604.36624	25049.98382	1469.58768	1254.23529	46252.00000	46269.00000	24947.00000
1477.98065	-3.07526	1189.20267	47438.66270	47457.24262	25322.45765	1475.77805	1154.68421	47143.00000	47162.00000	25223.00000
1484.17500	-3.07538	1189.54545	48345.37921	48364.62338	25712.05253	1481.96842	1248.44444	48002.00000	48020.00000	25548.00000
1490.36935	-3.01592	1037.33452	49195.50054	49217.56002	26172.91340	1488.15879	1042.40909	48935.00000	48957.00000	26024.00000
1496.56371	-3.09973	1258.13651	49879.75977	49898.34720	26618.47718	1494.34916	1159.90000	49617.00000	49637.00000	26439.00000
1502.75806	-3.13524	1365.32677	50591.13368	50608.25098	27152.96932	1500.53953	1376.94118	50359.00000	50376.00000	26968.00000
1508.95242	-3.05882	1145.02977	51253.94705	51274.60916	27722.43709	1506.72990	1237.68421	50995.00000	51014.00000	27498.00000
1515.14677	-3.00880	1020.45806	51974.54788	51997.69275	28334.96585	1512.92027	1027.08696	51732.00000	51755.00000	28132.00000
1521.34113	-3.04819	1117.34517	52689.45904	52710.74260	28919.33014	1519.11064	1079.09091	52409.00000	52431.00000	28691.00000
1527.53548	-3.04349	1105.32874	53401.95985	53423.66127	29488.74814	1525.30101	1137.42857	53179.00000	53200.00000	29314.00000
1533.72984	-3.02252	1053.21887	54002.35592	54025.24035	29918.10339	1531.49138	1044.91304	53765.00000	53788.00000	29755.00000
1539.92419	-3.04652	1113.07141	54685.66866	54707.52507	30372.47563	1537.68175	1102.50000	54449.00000	54471.00000	30216.00000
1546.11855	-3.04817	1117.31288	55305.50505	55327.45494	30801.18085	1543.87212	1111.90909	55080.00000	55102.00000	30640.00000
1552.31290	-3.04202	1101.60128	55885.78286	55908.17552	31249.72607	1550.06249	1119.04545	55687.00000	55709.00000	31090.00000
1558.50726	-3.03602	1086.48476	56504.22254	56527.04447	31744.10863	1556.25286	1075.17391	56254.00000	56277.00000	31548.00000
1564.70161	-3.05940	1146.58088	57069.58599	57091.25355	32211.11088	1562.44323	1130.18182	56912.00000	56934.00000	32070.00000
1570.89597	-3.03864	1093.06053	57488.91062	57511.77413	32587.09900	1568.63360	1131.59091	57305.00000	57327.00000	32432.00000
1577.09032	-3.02563	1060.80057	58027.63536	58051.16495	33042.86251	1574.82397	1041.16667	57847.00000	57871.00000	32883.00000
1583.28468	-3.11581	1305.59853	58482.60640	58501.75638	33460.94566	1581.01434	1191.76190	58312.00000	58333.00000	33306.00000
1589.47903	-3.11173	1293.37783	58842.89286	58862.56201	33851.85322	1587.20471	1391.22222	58742.00000	58760.00000	33718.00000
1595.67339	-3.03412	1081.72561	59142.35700	59165.23193	34293.06221	1593.39508	1083.65217	59005.00000	59028.00000	34104.00000
1601.86774	-3.07508	1188.73322	59546.69311	59567.43696	34903.73038	1599.58545	1179.04762	59411.00000	59432.00000	34672.00000
1608.06210	-3.07206	1180.48945	59850.53578	59871.13908	35552.56627	1605.77582	1164.52381	59743.00000	59764.00000	35309.00000
1614.25645	-3.06724	1167.44149	60141.62157	60162.15011	36251.15947	1611.96619	1203.40000	60034.00000	60054.00000	35986.00000
1620.45081	-3.01953	1045.98755	60323.44166	60345.81400	36897.00609	1618.15656	1073.90909	60284.00000	60306.00000	36680.00000
1626.64516	-3.03090	1073.73317	60434.45088	60455.88105	37467.31848	1624.34693	1052.31818	60374.00000	60396.00000	37245.00000
1632.83952	-3.02077	1048.99021	60655.34269	60676.87686	38071.27223	1630.53730	1082.85714	60575.00000	60596.00000	37856.00000
1639.03387	-3.02813	1066.91179	60690.27335	60711.22630	38496.63632	1636.72767	1016.90909	60721.00000	60743.00000	38371.00000
1645.22823	-3.05311	1130.07404	60447.19563	60466.36236	38716.90356	1642.91804	1154.10526	60559.00000	60578.00000	38650.00000
1651.42258	-3.03950	1095.21184	59290.56521	59310.01446	38321.86503	1649.10841	1067.20000	59937.00000	59957.00000	38613.00000
1657.61694	-3.02494	1059.09985	56927.67157	56945.53657	37080.47252	1655.29878	1126.72222	57831.00000	57849.00000	37568.00000
1663.81129	-3.16945	1477.22963	55514.94678	55529.71715	36405.31113	1661.48915	1136.52941	55810.00000	55827.00000	36506.00000
1670.00565	-3.22898	1694.24779	53518.97388	53526.96388	35306.48563	1667.67952	1870.80000	54730.00000	54740.00000	36032.00000
1676.20000	-3.73949	5489.00090	49153.87125	49158.85501	32555.52084	1673.86989	2865.83333	50783.00000	50789.00000	33594.00000
0.00000	0.00000	0.00000	0.00000	0.00000	0.00000	1680.06026	7770.00000	46145.00000	46147.00000	30607.00000
0.00000	0.00000	0.00000	0.00000	0.00000	0.00000	1686.25063	-2282.16667	40818.00000	40812.00000	27119.00000
0.00000	0.00000	0.00000	0.00000	0.00000	0.00000	1692.44100	-2282.16667	40818.00000	40812.00000	27119.00000
