'File 4_2016Ò»ÔÂ27_1244.xls
'Part ID 4
'Scan Created 2016-1-27 12:44:45
'Instrument S1-00205
'Version 1.5.7
'Integration Time 10100 µs
'Number of Scans 50
'Units Absorbance
'Thermistor 40.01
Wavelength	Absorbance	Normalized	100%	dark	Raw 1	Native Wvl	Native Norm	Native 100%	Native dark	Native 1
908.10000	-2.87733	753.92400	3374.18868	3375.40339	2358.95762	906.26400	525.50000	3442.00000	3444.00000	2393.00000
914.29435	-2.88117	760.63269	3185.51697	3187.66666	2262.16684	912.45437	946.00000	3231.00000	3232.00000	2286.00000
920.48871	-2.09367	124.07080	3153.83950	3158.73787	2263.54205	918.64474	179.80000	3140.00000	3145.00000	2246.00000
926.68306	-2.53303	341.22038	3245.71853	3248.37362	2341.32714	924.83511	300.00000	3222.00000	3225.00000	2325.00000
932.87742	-2.46500	291.74553	3347.11849	3350.31829	2400.62544	931.02548	311.33333	3305.00000	3308.00000	2374.00000
939.07177	-2.34686	222.25920	3569.21500	3573.92864	2554.30277	937.21585	249.00000	3492.00000	3496.00000	2500.00000
945.26613	-2.27915	190.17430	3808.01150	3813.78889	2716.37639	943.40622	179.33333	3747.00000	3753.00000	2677.00000
951.46048	-2.53506	342.81455	3975.33779	3978.56387	2826.63697	949.59659	284.50000	3925.00000	3929.00000	2791.00000
957.65484	-2.53070	339.39454	4173.45998	4177.42580	2972.20043	955.78696	395.33333	4108.00000	4111.00000	2925.00000
963.84919	-2.38469	242.48581	4346.60860	4352.14708	3090.61418	961.97733	208.16667	4309.00000	4315.00000	3066.00000
970.04355	-2.67259	470.52856	4488.85036	4491.33061	3196.53097	968.16770	427.66667	4430.00000	4433.00000	3150.00000
976.23790	-2.59643	394.84892	4681.39071	4685.00585	3339.80428	974.35807	443.00000	4637.00000	4640.00000	3311.00000
982.43226	-2.39518	248.41568	4824.97664	4830.30002	3430.78039	980.54844	276.60000	4769.00000	4774.00000	3391.00000
988.62661	-2.55254	356.89595	5044.78557	5049.14418	3593.34968	986.73881	287.60000	4980.00000	4985.00000	3547.00000
994.82097	-2.69873	499.72145	5276.35425	5279.35048	3749.03003	992.92918	501.33333	5197.00000	5200.00000	3696.00000
1001.01532	-2.55121	355.80446	5533.10145	5537.59847	3928.97048	999.11955	397.25000	5462.00000	5466.00000	3877.00000
1007.20968	-2.55271	357.03759	5800.42541	5805.22003	4117.87563	1005.30992	331.20000	5703.00000	5708.00000	4052.00000
1013.40403	-2.66193	459.12010	6100.06762	6103.91265	4323.63550	1011.50029	440.00000	6025.00000	6029.00000	4269.00000
1019.59839	-2.63889	435.39716	6318.34269	6322.53020	4493.98324	1017.69066	452.75000	6243.00000	6247.00000	4436.00000
1025.79274	-2.53605	343.59430	6590.09348	6595.70940	4690.22936	1023.88103	376.00000	6508.00000	6513.00000	4633.00000
1031.98710	-2.42450	265.76939	6856.39546	6863.72132	4878.18536	1030.07140	280.28571	6771.00000	6778.00000	4816.00000
1038.18145	-2.52302	333.44011	7131.33234	7137.69228	5078.40458	1036.26177	290.85714	7049.00000	7056.00000	5020.00000
1044.37581	-2.62920	425.79714	7422.54165	7427.48745	5285.23359	1042.45214	423.00000	7323.00000	7328.00000	5213.00000
1050.57016	-2.52524	335.14763	7753.60670	7760.34346	5529.60619	1048.64251	367.33333	7655.00000	7661.00000	5457.00000
1056.76452	-2.44880	281.05743	8044.95645	8053.03573	5741.25054	1054.83288	285.87500	7956.00000	7964.00000	5677.00000
1062.95887	-2.60226	400.17985	8344.77495	8350.83811	5960.02384	1061.02325	338.00000	8247.00000	8254.00000	5888.00000
1069.15323	-2.65601	452.91288	8649.24482	8654.99124	6178.93684	1067.21362	489.60000	8559.00000	8564.00000	6116.00000
1075.34758	-2.48576	306.02662	8937.85128	8945.90866	6379.09977	1073.40399	317.37500	8843.00000	8851.00000	6312.00000
1081.54194	-2.74192	551.98210	9247.56598	9252.20326	6601.13543	1079.59436	437.50000	9152.00000	9158.00000	6533.00000
1087.73629	-2.76473	581.74528	9570.69311	9576.59718	6837.23001	1085.78473	677.50000	9462.00000	9466.00000	6756.00000
1093.93065	-2.27695	189.21206	9918.24000	9929.83707	7095.52347	1091.97510	255.00000	9813.00000	9824.00000	7019.00000
1100.12500	-2.68764	487.11905	10263.53096	10270.46266	7341.22787	1098.16547	322.00000	10147.00000	10156.00000	7258.00000
1106.31935	-2.84378	697.87155	10652.67119	10657.14925	7628.33298	1104.35584	749.50000	10530.00000	10534.00000	7536.00000
1112.51371	-2.61219	409.43936	11030.17335	11037.49408	7910.12000	1110.54621	442.14286	10911.00000	10918.00000	7823.00000
1118.70806	-2.64945	446.11583	11415.53081	11422.84855	8190.57455	1116.73658	457.00000	11290.00000	11297.00000	8098.00000
1124.90242	-2.65511	451.96831	11825.98417	11833.52157	8494.80503	1122.92695	413.00000	11693.00000	11701.00000	8397.00000
1131.09677	-2.76301	579.44541	12249.90190	12255.75491	8801.96756	1129.11732	569.33333	12114.00000	12120.00000	8704.00000
1137.29113	-2.65549	452.36870	12635.57805	12643.52749	9068.34300	1135.30769	505.14286	12522.00000	12529.00000	8993.00000
1143.48548	-2.65419	451.01880	13027.02284	13035.39725	9322.19177	1141.49806	407.22222	12885.00000	12894.00000	9229.00000
1149.67984	-2.71476	518.51848	13502.54716	13510.16114	9638.89493	1147.68843	545.85714	13354.00000	13361.00000	9540.00000
1155.87419	-2.58217	382.09186	13961.95475	13972.37745	9921.72848	1153.87880	398.60000	13809.00000	13819.00000	9833.00000
1162.06855	-2.64355	440.10203	14471.96322	14481.68877	10212.99912	1160.06917	419.90000	14303.00000	14313.00000	10114.00000
1168.26290	-2.72112	526.16339	14973.17165	14981.59714	10526.07287	1166.25954	489.00000	14819.00000	14828.00000	10427.00000
1174.45726	-2.73704	545.80909	15432.18175	15440.95064	10803.63912	1172.44991	571.37500	15282.00000	15290.00000	10719.00000
1180.65161	-2.59696	395.32929	15907.32325	15918.75818	11039.49299	1178.64028	436.09091	15752.00000	15763.00000	10966.00000
1186.84597	-2.84774	704.27894	16408.50651	16416.67456	11282.91801	1184.83065	505.20000	16240.00000	16250.00000	11198.00000
1193.04032	-3.01020	1023.75798	16921.12190	16926.29826	11524.18249	1191.02102	1061.80000	16759.00000	16764.00000	11455.00000
1199.23468	-2.77350	593.60547	17423.52159	17432.97346	11700.96886	1197.21139	702.12500	17254.00000	17262.00000	11645.00000
1205.42903	-2.75993	575.35225	17946.70689	17957.42904	11870.04483	1203.40176	543.18182	17779.00000	17790.00000	11815.00000
1211.62339	-2.88195	761.99311	18443.34552	18451.58580	12103.45012	1209.59213	697.88889	18281.00000	18290.00000	12009.00000
1217.81774	-2.87101	743.03385	18976.99658	18985.82782	12548.54361	1215.78250	803.25000	18792.00000	18800.00000	12374.00000
1224.01210	-2.65238	449.14176	19553.19521	19567.00153	13160.83871	1221.97287	535.25000	19367.00000	19379.00000	12956.00000
1230.20645	-2.71210	515.35013	20074.40776	20087.65077	13727.80566	1228.16324	424.73333	19910.00000	19925.00000	13554.00000
1236.40081	-2.84440	698.88052	20599.75229	20608.67123	14242.44091	1234.35361	706.33333	20415.00000	20424.00000	14067.00000
1242.59516	-2.75018	562.57998	21136.51670	21147.89719	14729.79495	1240.54398	581.72727	20973.00000	20984.00000	14585.00000
1248.78952	-2.77176	591.23155	21603.90046	21614.86055	15131.90467	1246.73435	587.27273	21444.00000	21455.00000	14995.00000
1254.98387	-2.78752	613.08293	22139.15349	22149.89524	15578.17877	1252.92472	594.36364	21953.00000	21964.00000	15426.00000
1261.17823	-2.83244	679.89000	22695.73308	22705.54949	16017.95824	1259.11509	664.80000	22516.00000	22526.00000	15878.00000
1267.37258	-2.81968	660.20689	23208.08047	23218.40789	16411.81513	1265.30546	676.70000	23039.00000	23049.00000	16282.00000
1273.56694	-2.79373	621.90728	23771.26894	23782.40498	16853.41782	1271.49583	626.09091	23568.00000	23579.00000	16692.00000
1279.76129	-2.81293	650.03169	24399.03484	24409.86762	17355.89342	1277.68620	637.54545	24194.00000	24205.00000	17192.00000
1285.95565	-2.79334	621.35220	24988.62671	25000.23619	17825.07654	1283.87657	648.54545	24791.00000	24802.00000	17668.00000
1292.15000	-2.73902	548.30031	25587.32745	25600.59759	18297.72277	1290.06694	558.38462	25384.00000	25397.00000	18138.00000
1298.34435	-2.76957	588.26146	26229.53882	26242.22441	18796.45824	1296.25731	568.84615	26005.00000	26018.00000	18623.00000
1304.53871	-2.81016	645.89739	26866.52561	26878.23672	19282.11081	1302.44769	628.91667	26664.00000	26676.00000	19129.00000
1310.73306	-2.78398	608.10797	27500.83127	27513.70993	19757.06783	1308.63806	641.41667	27268.00000	27280.00000	19583.00000
1316.92742	-2.70153	502.95622	28221.25348	28236.87291	20284.27515	1314.82843	525.66667	27983.00000	27998.00000	20113.00000
1323.12177	-2.78121	604.24577	28908.65323	28922.30898	20766.26046	1321.01880	539.06667	28673.00000	28688.00000	20602.00000
1329.31613	-2.81473	652.71944	29584.83896	29597.89480	21224.84481	1327.20917	691.41667	29362.00000	29374.00000	21077.00000
1335.51048	-2.72499	530.86879	30251.85634	30267.92031	21650.53464	1333.39954	533.12500	30016.00000	30032.00000	21502.00000
1341.70484	-2.84015	692.07032	30979.17453	30992.04882	22090.10766	1339.58991	628.57143	30729.00000	30743.00000	21943.00000
1347.89919	-2.86968	740.76847	31644.96003	31657.46099	22441.46086	1345.78028	758.91667	31434.00000	31446.00000	22339.00000
1354.09355	-2.82522	668.67730	32303.27279	32317.56198	22735.47624	1351.97065	674.64286	32056.00000	32070.00000	22625.00000
1360.28790	-2.86183	727.50053	33013.61293	33027.34561	23033.80343	1358.16102	704.07143	32789.00000	32803.00000	22946.00000
1366.48226	-2.92190	835.41220	33653.32965	33665.76426	23281.74372	1364.35139	788.23077	33421.00000	33434.00000	23187.00000
1372.67661	-2.93516	861.31043	34364.12606	34376.71400	23588.94734	1370.54176	887.50000	34122.00000	34134.00000	23484.00000
1378.87097	-2.89831	791.23615	34932.32005	34946.39324	23783.73712	1376.73213	788.42857	34768.00000	34782.00000	23744.00000
1385.06532	-2.97414	942.18417	35219.08586	35231.28825	23685.25314	1382.92250	877.30769	35148.00000	35161.00000	23756.00000
1391.25968	-2.96119	914.51802	35390.18732	35403.48011	23477.71932	1389.11287	984.00000	35325.00000	35337.00000	23529.00000
1397.45403	-2.80667	640.71911	35543.99544	35562.57653	23380.74827	1395.30324	711.94118	35505.00000	35522.00000	23419.00000
1403.64839	-2.87040	741.98902	35768.80188	35786.21995	23230.66663	1401.49361	651.63158	35649.00000	35668.00000	23287.00000
1409.84274	-2.98541	966.96712	36418.31461	36431.93038	23070.43881	1407.68398	930.85714	36142.00000	36156.00000	23124.00000
1416.03710	-2.95988	911.75141	37385.90813	37401.82445	22941.99481	1413.87435	937.60000	37031.00000	37046.00000	22982.00000
1422.23145	-2.95966	911.30140	38428.58785	38445.68904	22853.69523	1420.06472	894.11765	38063.00000	38080.00000	22880.00000
1428.42581	-2.98757	971.79105	39544.07874	39561.25033	22874.86568	1426.25509	959.23529	39135.00000	39152.00000	22845.00000
1434.62016	-2.97776	950.07207	40671.69006	40690.28132	23009.84184	1432.44546	964.05556	40299.00000	40317.00000	22964.00000
1440.81452	-3.00224	1005.17641	41594.32772	41612.76693	23143.06087	1438.63583	958.68421	41287.00000	41306.00000	23091.00000
1447.00887	-3.05930	1146.31330	42596.69507	42613.39314	23425.62662	1444.82620	1113.17647	42203.00000	42220.00000	23296.00000
1453.20323	-3.05994	1148.00801	43650.83326	43668.19039	23763.66186	1451.01657	1157.00000	43323.00000	43340.00000	23671.00000
1459.39758	-3.05166	1126.31621	44526.92237	44545.14204	24002.56485	1457.20694	1128.38889	44196.00000	44214.00000	23903.00000
1465.59194	-3.08588	1218.66497	45579.93358	45597.38196	24348.14165	1463.39731	1166.22222	45197.00000	45215.00000	24223.00000
1471.78629	-3.09409	1241.89658	46586.64037	46604.36624	24663.89760	1469.58768	1276.94118	46252.00000	46269.00000	24561.00000
1477.98065	-3.08277	1209.96310	47438.66270	47457.24262	24935.78003	1475.77805	1175.00000	47143.00000	47162.00000	24837.00000
1484.17500	-3.08285	1210.18566	48345.37921	48364.62338	25319.05432	1481.96842	1270.11111	48002.00000	48020.00000	25158.00000
1490.36935	-3.02338	1055.30265	49195.50054	49217.56002	25773.63479	1488.15879	1060.50000	48935.00000	48957.00000	25626.00000
1496.56371	-3.10719	1279.93664	49879.75977	49898.34720	26215.26387	1494.34916	1179.95000	49617.00000	49637.00000	26038.00000
1502.75806	-3.14280	1389.32630	50591.13368	50608.25098	26740.55467	1500.53953	1401.00000	50359.00000	50376.00000	26559.00000
1508.95242	-3.06651	1165.48352	51253.94705	51274.60916	27301.73823	1506.72990	1259.68421	50995.00000	51014.00000	27080.00000
1515.14677	-3.01662	1039.00173	51974.54788	51997.69275	27905.06566	1512.92027	1045.60870	51732.00000	51755.00000	27706.00000
1521.34113	-3.05615	1138.00956	52689.45904	52710.74260	28479.28984	1519.11064	1098.95455	52409.00000	52431.00000	28254.00000
1527.53548	-3.05151	1125.92076	53401.95985	53423.66127	29042.82088	1525.30101	1158.57143	53179.00000	53200.00000	28870.00000
1533.72984	-3.03056	1072.90391	54002.35592	54025.24035	29467.54777	1531.49138	1064.43478	53765.00000	53788.00000	29306.00000
1539.92419	-3.05460	1133.96796	54685.66866	54707.52507	29915.58580	1537.68175	1123.13636	54449.00000	54471.00000	29762.00000
1546.11855	-3.05636	1138.56344	55305.50505	55327.45494	30334.74149	1543.87212	1132.95455	55080.00000	55102.00000	30177.00000
1552.31290	-3.05026	1122.70074	55885.78286	55908.17552	30777.40816	1550.06249	1140.45455	55687.00000	55709.00000	30619.00000
1558.50726	-3.04433	1107.45482	56504.22254	56527.04447	31265.83688	1556.25286	1095.82609	56254.00000	56277.00000	31073.00000
1564.70161	-3.06784	1169.05619	57069.58599	57091.25355	31723.36239	1562.44323	1152.22727	56912.00000	56934.00000	31585.00000
1570.89597	-3.04710	1114.56109	57488.91062	57511.77413	32096.85344	1568.63360	1153.86364	57305.00000	57327.00000	31942.00000
1577.09032	-3.03415	1081.81284	58027.63536	58051.16495	32547.62962	1574.82397	1061.66667	57847.00000	57871.00000	32391.00000
1583.28468	-3.12443	1331.76848	58482.60640	58501.75638	32958.96245	1581.01434	1215.61905	58312.00000	58333.00000	32805.00000
1589.47903	-3.12037	1319.38045	58842.89286	58862.56201	33348.60657	1587.20471	1419.11111	58742.00000	58760.00000	33216.00000
1595.67339	-3.04297	1104.01303	59142.35700	59165.23193	33781.33516	1593.39508	1105.73913	59005.00000	59028.00000	33596.00000
1601.86774	-3.08415	1213.80969	59546.69311	59567.43696	34382.89163	1599.58545	1203.71429	59411.00000	59432.00000	34154.00000
1608.06210	-3.08144	1206.26160	59850.53578	59871.13908	35022.20251	1605.77582	1189.57143	59743.00000	59764.00000	34783.00000
1614.25645	-3.07699	1193.96391	60141.62157	60162.15011	35707.48926	1611.96619	1230.35000	60034.00000	60054.00000	35447.00000
1620.45081	-3.02965	1070.64683	60323.44166	60345.81400	36344.33946	1618.15656	1098.90909	60284.00000	60306.00000	36130.00000
1626.64516	-3.04136	1099.91656	60434.45088	60455.88105	36906.98625	1624.34693	1077.63636	60374.00000	60396.00000	36688.00000
1632.83952	-3.03155	1075.34017	60655.34269	60676.87686	37502.87678	1630.53730	1109.80952	60575.00000	60596.00000	37290.00000
1639.03387	-3.03924	1094.55800	60690.27335	60711.22630	37921.85487	1636.72767	1042.90909	60721.00000	60743.00000	37799.00000
1645.22823	-3.06452	1160.16398	60447.19563	60466.36236	38136.99974	1642.91804	1184.57895	60559.00000	60578.00000	38071.00000
1651.42258	-3.05120	1125.11159	59290.56521	59310.01446	37749.75139	1649.10841	1096.05000	59937.00000	59957.00000	38036.00000
1657.61694	-3.03681	1088.45404	56927.67157	56945.53657	36528.76306	1655.29878	1157.83333	57831.00000	57849.00000	37008.00000
1663.81129	-3.18153	1518.90346	55514.94678	55529.71715	35866.91051	1661.48915	1168.35294	55810.00000	55827.00000	35965.00000
1670.00565	-3.24123	1742.71901	53518.97388	53526.96388	34785.04786	1667.67952	1924.00000	54730.00000	54740.00000	35500.00000
1676.20000	-3.75182	5647.07440	49153.87125	49158.85501	32076.12117	1673.86989	2948.50000	50783.00000	50789.00000	33098.00000
0.00000	0.00000	0.00000	0.00000	0.00000	0.00000	1680.06026	7993.50000	46145.00000	46147.00000	30160.00000
0.00000	0.00000	0.00000	0.00000	0.00000	0.00000	1686.25063	-2347.16667	40818.00000	40812.00000	26729.00000
0.00000	0.00000	0.00000	0.00000	0.00000	0.00000	1692.44100	-2347.16667	40818.00000	40812.00000	26729.00000
