'File 5_2016Ò»ÔÂ27_1244.xls
'Part ID 5
'Scan Created 2016-1-27 12:44:49
'Instrument S1-00205
'Version 1.5.7
'Integration Time 10100 µs
'Number of Scans 50
'Units Absorbance
'Thermistor 40.33
Wavelength	Absorbance	Normalized	100%	dark	Raw 1	Native Wvl	Native Norm	Native 100%	Native dark	Native 1
908.10000	-2.92234	836.26194	3374.18868	3375.40339	2249.45117	906.26400	581.00000	3442.00000	3444.00000	2282.00000
914.29435	-2.92745	846.14565	3185.51697	3187.66666	2157.57197	912.45437	1052.00000	3231.00000	3232.00000	2180.00000
920.48871	-2.14239	138.79894	3153.83950	3158.73787	2159.89477	918.64474	200.40000	3140.00000	3145.00000	2143.00000
926.68306	-2.58186	381.81680	3245.71853	3248.37362	2232.88034	924.83511	335.66667	3222.00000	3225.00000	2218.00000
932.87742	-2.51517	327.47217	3347.11849	3350.31829	2284.45784	931.02548	349.00000	3305.00000	3308.00000	2261.00000
939.07177	-2.39841	250.27114	3569.21500	3573.92864	2425.83756	937.21585	280.25000	3492.00000	3496.00000	2375.00000
945.26613	-2.33110	214.33649	3808.01150	3813.78889	2576.96091	943.40622	202.00000	3747.00000	3753.00000	2541.00000
951.46048	-2.58810	387.34778	3975.33779	3978.56387	2677.01756	949.59659	321.25000	3925.00000	3929.00000	2644.00000
957.65484	-2.58403	383.73399	4173.45998	4177.42580	2814.63954	955.78696	447.00000	4108.00000	4111.00000	2770.00000
963.84919	-2.43882	274.67326	4346.60860	4352.14708	2923.86976	961.97733	235.50000	4309.00000	4315.00000	2902.00000
970.04355	-2.72719	533.56777	4488.85036	4491.33061	3022.95251	968.16770	485.00000	4430.00000	4433.00000	2978.00000
976.23790	-2.65126	447.97866	4681.39071	4685.00585	3158.46150	974.35807	502.33333	4637.00000	4640.00000	3133.00000
982.43226	-2.45138	282.73511	4824.97664	4830.30002	3237.97796	980.54844	314.60000	4769.00000	4774.00000	3201.00000
988.62661	-2.60799	405.50218	5044.78557	5049.14418	3394.80892	986.73881	327.00000	4980.00000	4985.00000	3350.00000
994.82097	-2.75408	567.64511	5276.35425	5279.35048	3540.98447	992.92918	569.33333	5197.00000	5200.00000	3492.00000
1001.01532	-2.60719	404.75319	5533.10145	5537.59847	3707.79079	999.11955	451.75000	5462.00000	5466.00000	3659.00000
1007.20968	-2.60875	406.20835	5800.42541	5805.22003	3885.45647	1005.30992	376.80000	5703.00000	5708.00000	3824.00000
1013.40403	-2.71820	522.63270	6100.06762	6103.91265	4077.38049	1011.50029	500.75000	6025.00000	6029.00000	4026.00000
1019.59839	-2.69563	496.16662	6318.34269	6322.53020	4238.72337	1017.69066	515.75000	6243.00000	6247.00000	4184.00000
1025.79274	-2.59319	391.91522	6590.09348	6595.70940	4422.33970	1023.88103	428.80000	6508.00000	6513.00000	4369.00000
1031.98710	-2.48164	303.14045	6856.39546	6863.72132	4598.76910	1030.07140	319.71429	6771.00000	6778.00000	4540.00000
1038.18145	-2.58083	380.91299	7131.33234	7137.69228	4785.55668	1036.26177	332.00000	7049.00000	7056.00000	4732.00000
1044.37581	-2.68755	487.02875	7422.54165	7427.48745	4977.07616	1042.45214	483.80000	7323.00000	7328.00000	4909.00000
1050.57016	-2.58337	383.15403	7753.60670	7760.34346	5210.02244	1048.64251	420.00000	7655.00000	7661.00000	5141.00000
1056.76452	-2.50709	321.43388	8044.95645	8053.03573	5409.32241	1054.83288	326.87500	7956.00000	7964.00000	5349.00000
1062.95887	-2.66044	457.55040	8344.77495	8350.83811	5616.94610	1061.02325	386.57143	8247.00000	8254.00000	5548.00000
1069.15323	-2.71375	517.30315	8649.24482	8654.99124	5827.32917	1067.21362	559.40000	8559.00000	8564.00000	5767.00000
1075.34758	-2.54220	348.50037	8937.85128	8945.90866	6022.22372	1073.40399	361.87500	8843.00000	8851.00000	5956.00000
1081.54194	-2.79746	627.27957	9247.56598	9252.20326	6239.66979	1079.59436	497.33333	9152.00000	9158.00000	6174.00000
1087.73629	-2.82016	660.92941	9570.69311	9576.59718	6464.77006	1085.78473	769.75000	9462.00000	9466.00000	6387.00000
1093.93065	-2.33217	214.86853	9918.24000	9929.83707	6709.26338	1091.97510	289.63636	9813.00000	9824.00000	6638.00000
1100.12500	-2.74431	555.01580	10263.53096	10270.46266	6934.34106	1098.16547	366.44444	10147.00000	10156.00000	6858.00000
1106.31935	-2.90139	796.88072	10652.67119	10657.14925	7197.11150	1104.35584	855.25000	10530.00000	10534.00000	7113.00000
1112.51371	-2.67127	469.10665	11030.17335	11037.49408	7455.90384	1110.54621	506.14286	10911.00000	10918.00000	7375.00000
1118.70806	-2.70856	511.16679	11415.53081	11422.84855	7718.46452	1116.73658	523.57143	11290.00000	11297.00000	7632.00000
1124.90242	-2.71517	519.00868	11825.98417	11833.52157	8000.28306	1122.92695	473.87500	11693.00000	11701.00000	7910.00000
1131.09677	-2.82372	666.38246	12249.90190	12255.75491	8283.32826	1129.11732	654.50000	12114.00000	12120.00000	8193.00000
1137.29113	-2.71646	520.54456	12635.57805	12643.52749	8530.07746	1135.30769	581.28571	12522.00000	12529.00000	8460.00000
1143.48548	-2.71444	518.13267	13027.02284	13035.39725	8769.15939	1141.49806	468.11111	12885.00000	12894.00000	8681.00000
1149.67984	-2.77475	595.32558	13502.54716	13510.16114	9065.47335	1147.68843	626.71429	13354.00000	13361.00000	8974.00000
1155.87419	-2.64191	438.43500	13961.95475	13972.37745	9324.31359	1153.87880	457.60000	13809.00000	13819.00000	9243.00000
1162.06855	-2.70236	503.91557	14471.96322	14481.68877	9594.18946	1160.06917	481.10000	14303.00000	14313.00000	9502.00000
1168.26290	-2.77938	601.70502	14973.17165	14981.59714	9886.34205	1166.25954	559.33333	14819.00000	14828.00000	9794.00000
1174.45726	-2.79491	623.60902	15432.18175	15440.95064	10142.59488	1172.44991	653.12500	15282.00000	15290.00000	10065.00000
1180.65161	-2.65376	450.56248	15907.32325	15918.75818	10358.61305	1178.64028	497.45455	15752.00000	15763.00000	10291.00000
1186.84597	-2.90336	800.49507	16408.50651	16416.67456	10580.81416	1184.83065	574.60000	16240.00000	16250.00000	10504.00000
1193.04032	-3.06514	1161.83030	16921.12190	16926.29826	10796.71363	1191.02102	1205.80000	16759.00000	16764.00000	10735.00000
1199.23468	-2.82666	670.90286	17423.52159	17432.97346	10953.38028	1197.21139	794.75000	17254.00000	17262.00000	10904.00000
1205.42903	-2.81163	648.07525	17946.70689	17957.42904	11100.61486	1203.40176	612.45455	17779.00000	17790.00000	11053.00000
1211.62339	-2.93306	857.15642	18443.34552	18451.58580	11310.99090	1209.59213	785.11111	18281.00000	18290.00000	11224.00000
1217.81774	-2.92269	836.92949	18976.99658	18985.82782	11734.83752	1215.78250	904.12500	18792.00000	18800.00000	11567.00000
1224.01210	-2.70558	507.66827	19553.19521	19567.00153	12324.89099	1221.97287	604.25000	19367.00000	19379.00000	12128.00000
1230.20645	-2.76722	585.08338	20074.40776	20087.65077	12869.14130	1228.16324	481.53333	19910.00000	19925.00000	12702.00000
1236.40081	-2.90041	795.08532	20599.75229	20608.67123	13364.85312	1234.35361	803.11111	20415.00000	20424.00000	13196.00000
1242.59516	-2.80719	641.48801	21136.51670	21147.89719	13830.50380	1240.54398	662.81818	20973.00000	20984.00000	13693.00000
1248.78952	-2.82944	675.21095	21603.90046	21614.86055	14210.65575	1246.73435	670.36364	21444.00000	21455.00000	14081.00000
1254.98387	-2.84565	700.89559	22139.15349	22149.89524	14637.00817	1252.92472	679.36364	21953.00000	21964.00000	14491.00000
1261.17823	-2.89078	777.64840	22695.73308	22705.54949	15056.37792	1259.11509	760.20000	22516.00000	22526.00000	14924.00000
1267.37258	-2.87843	755.83645	23208.08047	23218.40789	15425.86651	1265.30546	774.50000	23039.00000	23049.00000	15304.00000
1273.56694	-2.85273	712.41630	23771.26894	23782.40498	15845.00758	1271.49583	717.09091	23568.00000	23579.00000	15691.00000
1279.76129	-2.87227	745.20189	24399.03484	24409.86762	16323.19818	1277.68620	730.63636	24194.00000	24205.00000	16168.00000
1285.95565	-2.85306	712.95657	24988.62671	25000.23619	16767.20607	1283.87657	744.00000	24791.00000	24802.00000	16618.00000
1292.15000	-2.79899	629.49468	25587.32745	25600.59759	17216.35556	1290.06694	640.92308	25384.00000	25397.00000	17065.00000
1298.34435	-2.82970	675.61054	26229.53882	26242.22441	17690.81503	1296.25731	653.30769	26005.00000	26018.00000	17525.00000
1304.53871	-2.87039	741.98287	26866.52561	26878.23672	18151.99124	1302.44769	722.33333	26664.00000	26676.00000	18008.00000
1310.73306	-2.84420	698.54742	27500.83127	27513.70993	18603.89672	1308.63806	737.00000	27268.00000	27280.00000	18436.00000
1316.92742	-2.76143	577.34147	28221.25348	28236.87291	19107.97845	1314.82843	603.40000	27983.00000	27998.00000	18947.00000
1323.12177	-2.84119	693.73280	28908.65323	28922.30898	19557.78523	1321.01880	619.00000	28673.00000	28688.00000	19403.00000
1329.31613	-2.87429	748.66542	29584.83896	29597.89480	19994.83984	1327.20917	793.33333	29362.00000	29374.00000	19854.00000
1335.51048	-2.78386	607.94077	30251.85634	30267.92031	20398.92793	1333.39954	610.87500	30016.00000	30032.00000	20258.00000
1341.70484	-2.89828	791.19290	30979.17453	30992.04882	20814.86646	1339.58991	719.07143	30729.00000	30743.00000	20676.00000
1347.89919	-2.92697	845.22066	31644.96003	31657.46099	21142.54932	1345.78028	866.50000	31434.00000	31446.00000	21048.00000
1354.09355	-2.88142	761.06747	32303.27279	32317.56198	21410.95052	1351.97065	768.57143	32056.00000	32070.00000	21310.00000
1360.28790	-2.91685	825.74394	33013.61293	33027.34561	21684.69607	1358.16102	799.92857	32789.00000	32803.00000	21604.00000
1366.48226	-2.97572	945.63254	33653.32965	33665.76426	21911.16624	1364.35139	893.00000	33421.00000	33434.00000	21825.00000
1372.67661	-2.98811	972.99246	34364.12606	34376.71400	22190.78559	1370.54176	1003.25000	34122.00000	34134.00000	22095.00000
1378.87097	-2.95019	891.64981	34932.32005	34946.39324	22367.03795	1376.73213	889.28571	34768.00000	34782.00000	22332.00000
1385.06532	-3.02461	1058.29133	35219.08586	35231.28825	22261.42761	1382.92250	986.69231	35148.00000	35161.00000	22334.00000
1391.25968	-3.01021	1023.78550	35390.18732	35403.48011	22053.91360	1389.11287	1102.75000	35325.00000	35337.00000	22104.00000
1397.45403	-2.85428	714.96300	35543.99544	35562.57653	21969.89913	1395.30324	795.29412	35505.00000	35522.00000	22002.00000
1403.64839	-2.91614	824.40626	35768.80188	35786.21995	21833.13632	1401.49361	725.31579	35649.00000	35668.00000	21887.00000
1409.84274	-3.02880	1068.57085	36418.31461	36431.93038	21668.58250	1407.68398	1030.78571	36142.00000	36156.00000	21725.00000
1416.03710	-3.00036	1000.83102	37385.90813	37401.82445	21528.85083	1413.87435	1031.53333	37031.00000	37046.00000	21573.00000
1422.23145	-2.99770	994.72444	38428.58785	38445.68904	21425.78869	1420.06472	977.76471	38063.00000	38080.00000	21458.00000
1428.42581	-3.02374	1056.19163	39544.07874	39561.25033	21425.90760	1426.25509	1044.00000	39135.00000	39152.00000	21404.00000
1434.62016	-3.01249	1029.17185	40671.69006	40690.28132	21538.26530	1432.44546	1045.38889	40299.00000	40317.00000	21500.00000
1440.81452	-3.03587	1086.08994	41594.32772	41612.76693	21655.54870	1438.63583	1036.73684	41287.00000	41306.00000	21608.00000
1447.00887	-3.09216	1236.40285	42596.69507	42613.39314	21918.04854	1444.82620	1201.29412	42203.00000	42220.00000	21798.00000
1453.20323	-3.09220	1236.52587	43650.83326	43668.19039	22228.77025	1451.01657	1246.82353	43323.00000	43340.00000	22144.00000
1459.39758	-3.08331	1211.45119	44526.92237	44545.14204	22450.10892	1457.20694	1214.27778	44196.00000	44214.00000	22357.00000
1465.59194	-3.11691	1308.90723	45579.93358	45597.38196	22773.98621	1463.39731	1253.22222	45197.00000	45215.00000	22657.00000
1471.78629	-3.12461	1332.31548	46586.64037	46604.36624	23067.28769	1469.58768	1370.41176	46252.00000	46269.00000	22972.00000
1477.98065	-3.11293	1296.97413	47438.66270	47457.24262	23315.53477	1475.77805	1259.78947	47143.00000	47162.00000	23226.00000
1484.17500	-3.11285	1296.72114	48345.37921	48364.62338	23671.75475	1481.96842	1361.11111	48002.00000	48020.00000	23520.00000
1490.36935	-3.05328	1130.52585	49195.50054	49217.56002	24102.14526	1488.15879	1136.09091	48935.00000	48957.00000	23963.00000
1496.56371	-3.13727	1371.74028	49879.75977	49898.34720	24516.81747	1494.34916	1264.35000	49617.00000	49637.00000	24350.00000
1502.75806	-3.17308	1489.63761	50591.13368	50608.25098	25017.30432	1500.53953	1501.94118	50359.00000	50376.00000	24843.00000
1508.95242	-3.09703	1250.34264	51253.94705	51274.60916	25555.87851	1506.72990	1351.05263	50995.00000	51014.00000	25344.00000
1515.14677	-3.04747	1115.51275	51974.54788	51997.69275	26131.18871	1512.92027	1122.34783	51732.00000	51755.00000	25941.00000
1521.34113	-3.08721	1222.39661	52689.45904	52710.74260	26682.50769	1519.11064	1180.22727	52409.00000	52431.00000	26466.00000
1527.53548	-3.08280	1210.02769	53401.95985	53423.66127	27221.34903	1525.30101	1244.90476	53179.00000	53200.00000	27057.00000
1533.72984	-3.06202	1153.50150	54002.35592	54025.24035	27622.92765	1531.49138	1144.26087	53765.00000	53788.00000	27470.00000
1539.92419	-3.08611	1219.30039	54685.66866	54707.52507	28049.87666	1537.68175	1207.63636	54449.00000	54471.00000	27903.00000
1546.11855	-3.08793	1224.42087	55305.50505	55327.45494	28450.18351	1543.87212	1218.27273	55080.00000	55102.00000	28300.00000
1552.31290	-3.08203	1207.88974	55885.78286	55908.17552	28870.36236	1550.06249	1226.77273	55687.00000	55709.00000	28720.00000
1558.50726	-3.07633	1192.15166	56504.22254	56527.04447	29334.00473	1556.25286	1179.39130	56254.00000	56277.00000	29151.00000
1564.70161	-3.10008	1259.14432	57069.58599	57091.25355	29768.54360	1562.44323	1240.77273	56912.00000	56934.00000	29637.00000
1570.89597	-3.07960	1201.14522	57488.91062	57511.77413	30122.36911	1568.63360	1243.22727	57305.00000	57327.00000	29976.00000
1577.09032	-3.06685	1166.40417	58027.63536	58051.16495	30553.16501	1574.82397	1144.54167	57847.00000	57871.00000	30402.00000
1583.28468	-3.15730	1436.49782	58482.60640	58501.75638	30951.10408	1581.01434	1310.95238	58312.00000	58333.00000	30803.00000
1589.47903	-3.15351	1423.99468	58842.89286	58862.56201	31324.27690	1587.20471	1531.27778	58742.00000	58760.00000	31197.00000
1595.67339	-3.07651	1192.65169	59142.35700	59165.23193	31744.82125	1593.39508	1194.08696	59005.00000	59028.00000	31564.00000
1601.86774	-3.11817	1312.69935	59546.69311	59567.43696	32329.75529	1599.58545	1301.14286	59411.00000	59432.00000	32108.00000
1608.06210	-3.11630	1307.06256	59850.53578	59871.13908	32947.04058	1605.77582	1288.00000	59743.00000	59764.00000	32716.00000
1614.25645	-3.11266	1296.17304	60141.62157	60162.15011	33612.99257	1611.96619	1334.75000	60034.00000	60054.00000	33359.00000
1620.45081	-3.06623	1164.73827	60323.44166	60345.81400	34235.37875	1618.15656	1194.54545	60284.00000	60306.00000	34026.00000
1626.64516	-3.07884	1199.05443	60434.45088	60455.88105	34785.11676	1624.34693	1173.86364	60374.00000	60396.00000	34571.00000
1632.83952	-3.06983	1174.43190	60655.34269	60676.87686	35365.93069	1630.53730	1211.28571	60575.00000	60596.00000	35159.00000
1639.03387	-3.07833	1197.64247	60690.27335	60711.22630	35777.47810	1636.72767	1140.36364	60721.00000	60743.00000	35655.00000
1645.22823	-3.10429	1271.40961	60447.19563	60466.36236	35993.62251	1642.91804	1297.36842	60559.00000	60578.00000	35928.00000
1651.42258	-3.09183	1235.46066	59290.56521	59310.01446	35637.66734	1649.10841	1202.70000	59937.00000	59957.00000	35903.00000
1657.61694	-3.07774	1196.03498	56927.67157	56945.53657	34507.03271	1655.29878	1272.16667	57831.00000	57849.00000	34950.00000
1663.81129	-3.22305	1671.29114	55514.94678	55529.71715	33898.87746	1661.48915	1284.64706	55810.00000	55827.00000	33988.00000
1670.00565	-3.28304	1918.85035	53518.97388	53526.96388	32888.23363	1667.67952	2118.30000	54730.00000	54740.00000	33557.00000
1676.20000	-3.79374	6219.33455	49153.87125	49158.85501	30345.85886	1673.86989	3247.00000	50783.00000	50789.00000	31307.00000
0.00000	0.00000	0.00000	0.00000	0.00000	0.00000	1680.06026	8804.00000	46145.00000	46147.00000	28539.00000
0.00000	0.00000	0.00000	0.00000	0.00000	0.00000	1686.25063	-2584.83333	40818.00000	40812.00000	25303.00000
0.00000	0.00000	0.00000	0.00000	0.00000	0.00000	1692.44100	-2584.83333	40818.00000	40812.00000	25303.00000
