'File 6_2016Ò»ÔÂ27_1244.xls
'Part ID 6
'Scan Created 2016-1-27 12:44:50
'Instrument S1-00205
'Version 1.5.7
'Integration Time 10100 µs
'Number of Scans 50
'Units Absorbance
'Thermistor 40.33
Wavelength	Absorbance	Normalized	100%	dark	Raw 1	Native Wvl	Native Norm	Native 100%	Native dark	Native 1
908.10000	-2.90211	798.19674	3374.18868	3375.40339	2299.46287	906.26400	556.00000	3442.00000	3444.00000	2332.00000
914.29435	-2.90614	805.63324	3185.51697	3187.66666	2207.54045	912.45437	1002.00000	3231.00000	3232.00000	2230.00000
920.48871	-2.11926	131.60020	3153.83950	3158.73787	2210.03580	918.64474	190.40000	3140.00000	3145.00000	2193.00000
926.68306	-2.55928	362.47351	3245.71853	3248.37362	2284.53572	924.83511	318.66667	3222.00000	3225.00000	2269.00000
932.87742	-2.49198	310.44071	3347.11849	3350.31829	2339.81495	931.02548	331.00000	3305.00000	3308.00000	2315.00000
939.07177	-2.37487	237.06495	3569.21500	3573.92864	2486.41886	937.21585	265.50000	3492.00000	3496.00000	2434.00000
945.26613	-2.30758	203.03883	3808.01150	3813.78889	2642.24544	943.40622	191.33333	3747.00000	3753.00000	2605.00000
951.46048	-2.56435	366.73232	3975.33779	3978.56387	2746.16580	949.59659	304.25000	3925.00000	3929.00000	2712.00000
957.65484	-2.56006	363.12795	4173.45998	4177.42580	2888.01604	955.78696	423.00000	4108.00000	4111.00000	2842.00000
963.84919	-2.41398	259.40761	4346.60860	4352.14708	3002.60935	961.97733	222.66667	4309.00000	4315.00000	2979.00000
970.04355	-2.70207	503.58507	4488.85036	4491.33061	3105.60417	968.16770	457.66667	4430.00000	4433.00000	3060.00000
976.23790	-2.62630	422.95929	4681.39071	4685.00585	3243.84708	974.35807	474.33333	4637.00000	4640.00000	3217.00000
982.43226	-2.42539	266.31361	4824.97664	4830.30002	3330.04174	980.54844	296.60000	4769.00000	4774.00000	3291.00000
988.62661	-2.58243	382.32295	5044.78557	5049.14418	3489.84431	986.73881	308.00000	4980.00000	4985.00000	3445.00000
994.82097	-2.72875	535.49282	5276.35425	5279.35048	3639.52358	992.92918	537.33333	5197.00000	5200.00000	3588.00000
1001.01532	-2.58070	380.80100	5533.10145	5537.59847	3815.80949	999.11955	425.25000	5462.00000	5466.00000	3765.00000
1007.20968	-2.58243	382.32234	5800.42541	5805.22003	3998.44480	1005.30992	354.60000	5703.00000	5708.00000	3935.00000
1013.40403	-2.69129	491.23460	6100.06762	6103.91265	4199.14044	1011.50029	471.00000	6025.00000	6029.00000	4145.00000
1019.59839	-2.66794	465.51903	6318.34269	6322.53020	4367.36786	1017.69066	484.00000	6243.00000	6247.00000	4311.00000
1025.79274	-2.56558	367.77608	6590.09348	6595.70940	4556.28164	1023.88103	402.40000	6508.00000	6513.00000	4501.00000
1031.98710	-2.45417	284.55849	6856.39546	6863.72132	4737.74427	1030.07140	300.00000	6771.00000	6778.00000	4678.00000
1038.18145	-2.55308	357.34234	7131.33234	7137.69228	4930.69332	1036.26177	311.71429	7049.00000	7056.00000	4874.00000
1044.37581	-2.65918	456.22374	7422.54165	7427.48745	5132.14264	1042.45214	453.20000	7323.00000	7328.00000	5062.00000
1050.57016	-2.55525	359.12599	7753.60670	7760.34346	5370.06520	1048.64251	393.66667	7655.00000	7661.00000	5299.00000
1056.76452	-2.47845	300.91775	8044.95645	8053.03573	5578.01353	1054.83288	306.12500	7956.00000	7964.00000	5515.00000
1062.95887	-2.63151	428.06377	8344.77495	8350.83811	5793.08576	1061.02325	361.71429	8247.00000	8254.00000	5722.00000
1069.15323	-2.68461	483.73375	8649.24482	8654.99124	6010.91805	1067.21362	523.20000	8559.00000	8564.00000	5948.00000
1075.34758	-2.51295	325.79784	8937.85128	8945.90866	6213.02956	1073.40399	338.25000	8843.00000	8851.00000	6145.00000
1081.54194	-2.76784	585.92410	9247.56598	9252.20326	6437.67087	1079.59436	464.83333	9152.00000	9158.00000	6369.00000
1087.73629	-2.78996	616.53769	9570.69311	9576.59718	6674.27522	1085.78473	718.25000	9462.00000	9466.00000	6593.00000
1093.93065	-2.30204	200.46480	9918.24000	9929.83707	6925.46184	1091.97510	270.09091	9813.00000	9824.00000	6853.00000
1100.12500	-2.71430	517.96797	10263.53096	10270.46266	7156.24386	1098.16547	342.11111	10147.00000	10156.00000	7077.00000
1106.31935	-2.87112	743.22800	10652.67119	10657.14925	7430.36923	1104.35584	797.75000	10530.00000	10534.00000	7343.00000
1112.51371	-2.64094	437.45703	11030.17335	11037.49408	7697.42784	1110.54621	472.00000	10911.00000	10918.00000	7614.00000
1118.70806	-2.67828	476.73417	11415.53081	11422.84855	7968.08075	1116.73658	488.28571	11290.00000	11297.00000	7879.00000
1124.90242	-2.68470	483.83622	11825.98417	11833.52157	8259.87534	1122.92695	441.87500	11693.00000	11701.00000	8166.00000
1131.09677	-2.79321	621.16630	12249.90190	12255.75491	8552.90533	1129.11732	610.00000	12114.00000	12120.00000	8460.00000
1137.29113	-2.68626	485.57753	12635.57805	12643.52749	8806.37807	1135.30769	542.14286	12522.00000	12529.00000	8734.00000
1143.48548	-2.68443	483.53416	13027.02284	13035.39725	9054.14063	1141.49806	436.77778	12885.00000	12894.00000	8963.00000
1149.67984	-2.74485	555.71425	13502.54716	13510.16114	9361.20575	1147.68843	585.00000	13354.00000	13361.00000	9266.00000
1155.87419	-2.61215	409.40137	13961.95475	13972.37745	9632.12347	1153.87880	427.20000	13809.00000	13819.00000	9547.00000
1162.06855	-2.67337	471.37985	14471.96322	14481.68877	9909.79655	1160.06917	449.70000	14303.00000	14313.00000	9816.00000
1168.26290	-2.75079	563.37034	14973.17165	14981.59714	10210.79599	1166.25954	523.77778	14819.00000	14828.00000	10114.00000
1174.45726	-2.76626	583.79791	15432.18175	15440.95064	10480.81424	1172.44991	611.25000	15282.00000	15290.00000	10400.00000
1180.65161	-2.62599	422.66250	15907.32325	15918.75818	10702.42644	1178.64028	466.36364	15752.00000	15763.00000	10633.00000
1186.84597	-2.87638	752.27369	16408.50651	16416.67456	10933.09225	1184.83065	539.70000	16240.00000	16250.00000	10853.00000
1193.04032	-3.03869	1093.17392	16921.12190	16926.29826	11158.10373	1191.02102	1134.00000	16759.00000	16764.00000	11094.00000
1199.23468	-2.80142	633.02309	17423.52159	17432.97346	11320.02313	1197.21139	749.12500	17254.00000	17262.00000	11269.00000
1205.42903	-2.78743	612.96110	17946.70689	17957.42904	11472.18768	1203.40176	578.81818	17779.00000	17790.00000	11423.00000
1211.62339	-2.90933	811.58677	18443.34552	18451.58580	11690.36531	1209.59213	743.33333	18281.00000	18290.00000	11600.00000
1217.81774	-2.89852	791.62628	18976.99658	18985.82782	12127.35952	1215.78250	855.62500	18792.00000	18800.00000	11955.00000
1224.01210	-2.68024	478.90006	19553.19521	19567.00153	12736.49335	1221.97287	570.58333	19367.00000	19379.00000	12532.00000
1230.20645	-2.74015	549.72438	20074.40776	20087.65077	13303.81087	1228.16324	453.00000	19910.00000	19925.00000	13130.00000
1236.40081	-2.87267	745.87690	20599.75229	20608.67123	13813.98225	1234.35361	753.66667	20415.00000	20424.00000	13641.00000
1242.59516	-2.77873	600.79471	21136.51670	21147.89719	14294.05774	1240.54398	621.18182	20973.00000	20984.00000	14151.00000
1248.78952	-2.80038	631.51350	21603.90046	21614.86055	14690.15899	1246.73435	627.18182	21444.00000	21455.00000	14556.00000
1254.98387	-2.81615	654.86096	22139.15349	22149.89524	15130.25352	1252.92472	635.00000	21953.00000	21964.00000	14979.00000
1261.17823	-2.86093	725.98890	22695.73308	22705.54949	15564.57025	1259.11509	709.80000	22516.00000	22526.00000	15428.00000
1267.37258	-2.84838	705.31690	23208.08047	23218.40789	15946.77295	1265.30546	722.90000	23039.00000	23049.00000	15820.00000
1273.56694	-2.82243	664.39504	23771.26894	23782.40498	16380.01728	1271.49583	668.81818	23568.00000	23579.00000	16222.00000
1279.76129	-2.84177	694.65683	24399.03484	24409.86762	16871.64637	1277.68620	681.27273	24194.00000	24205.00000	16711.00000
1285.95565	-2.82220	664.05216	24988.62671	25000.23619	17331.95252	1283.87657	693.09091	24791.00000	24802.00000	17178.00000
1292.15000	-2.76785	585.93776	25587.32745	25600.59759	17796.44523	1290.06694	596.76923	25384.00000	25397.00000	17639.00000
1298.34435	-2.79818	628.32361	26229.53882	26242.22441	18289.38025	1296.25731	607.69231	26005.00000	26018.00000	18118.00000
1304.53871	-2.83877	689.87864	26866.52561	26878.23672	18764.77695	1302.44769	671.66667	26664.00000	26676.00000	18616.00000
1310.73306	-2.81253	649.43313	27500.83127	27513.70993	19230.27081	1308.63806	685.16667	27268.00000	27280.00000	19058.00000
1316.92742	-2.72974	536.71618	28221.25348	28236.87291	19750.32185	1314.82843	561.00000	27983.00000	27998.00000	19583.00000
1323.12177	-2.80945	644.84322	28908.65323	28922.30898	20217.94121	1321.01880	575.33333	28673.00000	28688.00000	20058.00000
1329.31613	-2.84267	696.09724	29584.83896	29597.89480	20669.00610	1327.20917	737.58333	29362.00000	29374.00000	20523.00000
1335.51048	-2.75249	565.57420	30251.85634	30267.92031	21086.86664	1333.39954	568.12500	30016.00000	30032.00000	20942.00000
1341.70484	-2.86736	736.81249	30979.17453	30992.04882	21514.42500	1339.58991	669.42857	30729.00000	30743.00000	21371.00000
1347.89919	-2.89645	787.86287	31644.96003	31657.46099	21855.81203	1345.78028	807.41667	31434.00000	31446.00000	21757.00000
1354.09355	-2.85165	710.63943	32303.27279	32317.56198	22133.99516	1351.97065	717.14286	32056.00000	32070.00000	22030.00000
1360.28790	-2.88784	772.38821	33013.61293	33027.34561	22417.28626	1358.16102	747.85714	32789.00000	32803.00000	22333.00000
1366.48226	-2.94735	885.82455	33653.32965	33665.76426	22655.00430	1364.35139	836.07692	33421.00000	33434.00000	22565.00000
1372.67661	-2.96033	912.70421	34364.12606	34376.71400	22945.43888	1370.54176	940.66667	34122.00000	34134.00000	22846.00000
1378.87097	-2.92318	837.87516	34932.32005	34946.39324	23125.79549	1376.73213	835.07143	34768.00000	34782.00000	23091.00000
1385.06532	-2.99866	996.92440	35219.08586	35231.28825	23013.99439	1382.92250	928.61538	35148.00000	35161.00000	23089.00000
1391.25968	-2.98515	966.38201	35390.18732	35403.48011	22801.99338	1389.11287	1040.33333	35325.00000	35337.00000	22853.00000
1397.45403	-2.82984	675.83147	35543.99544	35562.57653	22713.43934	1395.30324	751.41176	35505.00000	35522.00000	22748.00000
1403.64839	-2.89258	780.86340	35768.80188	35786.21995	22571.44430	1401.49361	686.42105	35649.00000	35668.00000	22626.00000
1409.84274	-3.00654	1015.17316	36418.31461	36431.93038	22405.21733	1407.68398	978.07143	36142.00000	36156.00000	22463.00000
1416.03710	-2.97987	954.71049	37385.90813	37401.82445	22260.56247	1413.87435	982.66667	37031.00000	37046.00000	22306.00000
1422.23145	-2.97864	952.00376	38428.58785	38445.68904	22157.07307	1420.06472	934.76471	38063.00000	38080.00000	22189.00000
1428.42581	-3.00584	1013.54128	39544.07874	39561.25033	22158.02730	1426.25509	1000.94118	39135.00000	39152.00000	22136.00000
1434.62016	-2.99544	989.55891	40671.69006	40690.28132	22275.24800	1432.44546	1004.61111	40299.00000	40317.00000	22234.00000
1440.81452	-3.01942	1045.72891	41594.32772	41612.76693	22397.69400	1438.63583	997.68421	41287.00000	41306.00000	22350.00000
1447.00887	-3.07618	1191.74346	42596.69507	42613.39314	22665.30532	1444.82620	1157.58824	42203.00000	42220.00000	22541.00000
1453.20323	-3.07649	1192.57319	43650.83326	43668.19039	22990.91799	1451.01657	1202.23529	43323.00000	43340.00000	22902.00000
1459.39758	-3.06786	1169.11015	44526.92237	44545.14204	23222.18877	1457.20694	1171.61111	44196.00000	44214.00000	23125.00000
1465.59194	-3.10175	1263.99920	45579.93358	45597.38196	23557.40425	1463.39731	1209.88889	45197.00000	45215.00000	23437.00000
1471.78629	-3.10972	1287.42445	46586.64037	46604.36624	23859.96131	1469.58768	1324.00000	46252.00000	46269.00000	23761.00000
1477.98065	-3.09823	1253.80770	47438.66270	47457.24262	24119.40079	1475.77805	1217.68421	47143.00000	47162.00000	24026.00000
1484.17500	-3.09826	1253.88520	48345.37921	48364.62338	24487.19190	1481.96842	1316.05556	48002.00000	48020.00000	24331.00000
1490.36935	-3.03871	1093.22698	49195.50054	49217.56002	24930.91420	1488.15879	1098.63636	48935.00000	48957.00000	24787.00000
1496.56371	-3.12259	1326.12915	49879.75977	49898.34720	25360.66002	1494.34916	1222.45000	49617.00000	49637.00000	25188.00000
1502.75806	-3.15826	1439.65333	50591.13368	50608.25098	25875.94603	1500.53953	1451.70588	50359.00000	50376.00000	25697.00000
1508.95242	-3.08199	1207.79326	51253.94705	51274.60916	26431.41737	1506.72990	1305.36842	50995.00000	51014.00000	26212.00000
1515.14677	-3.03215	1076.84373	51974.54788	51997.69275	27027.61468	1512.92027	1083.65217	51732.00000	51755.00000	26831.00000
1521.34113	-3.07173	1179.57414	52689.45904	52710.74260	27594.26081	1519.11064	1139.04545	52409.00000	52431.00000	27372.00000
1527.53548	-3.06711	1167.10916	53401.95985	53423.66127	28150.92580	1525.30101	1200.95238	53179.00000	53200.00000	27980.00000
1533.72984	-3.04619	1112.23089	54002.35592	54025.24035	28567.44688	1531.49138	1103.39130	53765.00000	53788.00000	28410.00000
1539.92419	-3.07023	1175.52113	54685.66866	54707.52507	29007.09771	1537.68175	1164.36364	54449.00000	54471.00000	28855.00000
1546.11855	-3.07193	1180.14205	55305.50505	55327.45494	29422.06629	1543.87212	1174.31818	55080.00000	55102.00000	29267.00000
1552.31290	-3.06591	1163.88514	55885.78286	55908.17552	29855.49367	1550.06249	1182.22727	55687.00000	55709.00000	29700.00000
1558.50726	-3.06004	1148.27164	56504.22254	56527.04447	30334.83242	1556.25286	1136.13043	56254.00000	56277.00000	30146.00000
1564.70161	-3.08365	1212.40792	57069.58599	57091.25355	30782.68169	1562.44323	1194.86364	56912.00000	56934.00000	30647.00000
1570.89597	-3.06302	1156.16268	57488.91062	57511.77413	31148.13800	1568.63360	1196.81818	57305.00000	57327.00000	30997.00000
1577.09032	-3.05015	1122.39800	58027.63536	58051.16495	31590.82137	1574.82397	1101.45833	57847.00000	57871.00000	31436.00000
1583.28468	-3.14044	1381.77229	58482.60640	58501.75638	32000.10916	1581.01434	1261.23810	58312.00000	58333.00000	31847.00000
1589.47903	-3.13644	1369.12410	58842.89286	58862.56201	32386.22616	1587.20471	1472.50000	58742.00000	58760.00000	32255.00000
1595.67339	-3.05917	1145.95882	59142.35700	59165.23193	32817.29762	1593.39508	1147.65217	59005.00000	59028.00000	32632.00000
1601.86774	-3.10043	1260.16963	59546.69311	59567.43696	33420.69353	1599.58545	1249.57143	59411.00000	59432.00000	33191.00000
1608.06210	-3.09792	1252.91056	59850.53578	59871.13908	34061.60793	1605.77582	1235.33333	59743.00000	59764.00000	33822.00000
1614.25645	-3.09374	1240.91444	60141.62157	60162.15011	34745.45990	1611.96619	1278.40000	60034.00000	60054.00000	34486.00000
1620.45081	-3.04671	1113.56138	60323.44166	60345.81400	35382.46878	1618.15656	1142.68182	60284.00000	60306.00000	35167.00000
1626.64516	-3.05864	1144.56087	60434.45088	60455.88105	35951.31655	1624.34693	1121.18182	60374.00000	60396.00000	35730.00000
1632.83952	-3.04908	1119.63884	60655.34269	60676.87686	36547.82676	1630.53730	1155.23810	60575.00000	60596.00000	36336.00000
1639.03387	-3.05700	1140.24429	60690.27335	60711.22630	36970.92838	1636.72767	1086.31818	60721.00000	60743.00000	36844.00000
1645.22823	-3.08244	1209.05110	60447.19563	60466.36236	37195.53584	1642.91804	1234.21053	60559.00000	60578.00000	37128.00000
1651.42258	-3.06944	1173.39670	59290.56521	59310.01446	36824.70640	1649.10841	1142.85000	59937.00000	59957.00000	37100.00000
1657.61694	-3.05507	1135.18537	56927.67157	56945.53657	35652.57390	1655.29878	1207.61111	57831.00000	57849.00000	36112.00000
1663.81129	-3.19973	1583.91613	55514.94678	55529.71715	35024.31472	1661.48915	1218.35294	55810.00000	55827.00000	35115.00000
1670.00565	-3.25960	1818.00777	53518.97388	53526.96388	33980.37440	1667.67952	2006.70000	54730.00000	54740.00000	34673.00000
1676.20000	-3.76982	5885.98788	49153.87125	49158.85501	31350.17702	1673.86989	3074.33333	50783.00000	50789.00000	32343.00000
0.00000	0.00000	0.00000	0.00000	0.00000	0.00000	1680.06026	8330.50000	46145.00000	46147.00000	29486.00000
0.00000	0.00000	0.00000	0.00000	0.00000	0.00000	1686.25063	-2444.66667	40818.00000	40812.00000	26144.00000
0.00000	0.00000	0.00000	0.00000	0.00000	0.00000	1692.44100	-2444.66667	40818.00000	40812.00000	26144.00000
