'File 7_2016Ò»ÔÂ27_1244.xls
'Part ID 7
'Scan Created 2016-1-27 12:44:52
'Instrument S1-00205
'Version 1.5.7
'Integration Time 10100 µs
'Number of Scans 50
'Units Absorbance
'Thermistor 40.33
Wavelength	Absorbance	Normalized	100%	dark	Raw 1	Native Wvl	Native Norm	Native 100%	Native dark	Native 1
908.10000	-2.88984	775.95709	3374.18868	3375.40339	2329.24582	906.26400	540.50000	3442.00000	3444.00000	2363.00000
914.29435	-2.89376	782.99221	3185.51697	3187.66666	2235.63486	912.45437	974.00000	3231.00000	3232.00000	2258.00000
920.48871	-2.10506	127.36719	3153.83950	3158.73787	2239.02290	918.64474	184.60000	3140.00000	3145.00000	2222.00000
926.68306	-2.54577	351.37195	3245.71853	3248.37362	2314.22733	924.83511	309.00000	3222.00000	3225.00000	2298.00000
932.87742	-2.47765	300.36477	3347.11849	3350.31829	2372.44509	931.02548	320.33333	3305.00000	3308.00000	2347.00000
939.07177	-2.36069	229.45298	3569.21500	3573.92864	2521.50671	937.21585	257.00000	3492.00000	3496.00000	2468.00000
945.26613	-2.29292	196.30014	3808.01150	3813.78889	2681.09236	943.40622	185.00000	3747.00000	3753.00000	2643.00000
951.46048	-2.54983	354.67692	3975.33779	3978.56387	2786.60938	949.59659	294.25000	3925.00000	3929.00000	2752.00000
957.65484	-2.54536	351.04174	4173.45998	4177.42580	2931.03605	955.78696	409.00000	4108.00000	4111.00000	2884.00000
963.84919	-2.39925	250.75630	4346.60860	4352.14708	3047.80163	961.97733	215.16667	4309.00000	4315.00000	3024.00000
970.04355	-2.68696	486.36064	4488.85036	4491.33061	3153.06232	968.16770	442.33333	4430.00000	4433.00000	3106.00000
976.23790	-2.61046	407.81074	4681.39071	4685.00585	3295.12782	974.35807	457.33333	4637.00000	4640.00000	3268.00000
982.43226	-2.41022	257.17156	4824.97664	4830.30002	3381.88328	980.54844	286.40000	4769.00000	4774.00000	3342.00000
988.62661	-2.56655	368.59671	5044.78557	5049.14418	3545.82149	986.73881	297.00000	4980.00000	4985.00000	3500.00000
994.82097	-2.71273	516.10094	5276.35425	5279.35048	3698.98442	992.92918	518.00000	5197.00000	5200.00000	3646.00000
1001.01532	-2.56423	366.63497	5533.10145	5537.59847	3879.76949	999.11955	409.50000	5462.00000	5466.00000	3828.00000
1007.20968	-2.56585	368.00311	5800.42541	5805.22003	4066.07522	1005.30992	341.40000	5703.00000	5708.00000	4001.00000
1013.40403	-2.67422	472.30488	6100.06762	6103.91265	4272.61989	1011.50029	453.00000	6025.00000	6029.00000	4217.00000
1019.59839	-2.65094	447.65427	6318.34269	6322.53020	4442.26744	1017.69066	465.25000	6243.00000	6247.00000	4386.00000
1025.79274	-2.54911	354.08748	6590.09348	6595.70940	4632.35717	1023.88103	387.40000	6508.00000	6513.00000	4576.00000
1031.98710	-2.43713	273.60833	6856.39546	6863.72132	4819.46202	1030.07140	288.57143	6771.00000	6778.00000	4758.00000
1038.18145	-2.53576	343.36930	7131.33234	7137.69228	5017.00076	1036.26177	299.57143	7049.00000	7056.00000	4959.00000
1044.37581	-2.64177	438.29767	7422.54165	7427.48745	5222.30842	1042.45214	435.40000	7323.00000	7328.00000	5151.00000
1050.57016	-2.53773	344.93247	7753.60670	7760.34346	5464.58332	1048.64251	378.16667	7655.00000	7661.00000	5392.00000
1056.76452	-2.46064	288.83086	8044.95645	8053.03573	5677.41377	1054.83288	293.87500	7956.00000	7964.00000	5613.00000
1062.95887	-2.61364	410.80520	8344.77495	8350.83811	5896.12894	1061.02325	347.14286	8247.00000	8254.00000	5824.00000
1069.15323	-2.66654	464.02004	8649.24482	8654.99124	6118.91221	1067.21362	502.00000	8559.00000	8564.00000	6054.00000
1075.34758	-2.49465	312.35409	8937.85128	8945.90866	6325.81281	1073.40399	324.25000	8843.00000	8851.00000	6257.00000
1081.54194	-2.74963	561.86122	9247.56598	9252.20326	6553.11185	1079.59436	445.83333	9152.00000	9158.00000	6483.00000
1087.73629	-2.77160	591.01832	9570.69311	9576.59718	6794.07026	1085.78473	688.50000	9462.00000	9466.00000	6712.00000
1093.93065	-2.28366	192.16080	9918.24000	9929.83707	7050.06390	1091.97510	259.00000	9813.00000	9824.00000	6975.00000
1100.12500	-2.69547	495.98353	10263.53096	10270.46266	7288.86369	1098.16547	327.55556	10147.00000	10156.00000	7208.00000
1106.31935	-2.85230	711.70241	10652.67119	10657.14925	7567.38234	1104.35584	764.00000	10530.00000	10534.00000	7478.00000
1112.51371	-2.62183	418.63309	11030.17335	11037.49408	7840.93688	1110.54621	451.71429	10911.00000	10918.00000	7756.00000
1118.70806	-2.65931	456.36698	11415.53081	11422.84855	8115.77039	1116.73658	467.42857	11290.00000	11297.00000	8025.00000
1124.90242	-2.66558	463.00157	11825.98417	11833.52157	8413.70703	1122.92695	422.87500	11693.00000	11701.00000	8318.00000
1131.09677	-2.77397	594.25167	12249.90190	12255.75491	8713.44379	1129.11732	583.66667	12114.00000	12120.00000	8618.00000
1137.29113	-2.66680	464.30658	12635.57805	12643.52749	8974.27235	1135.30769	518.42857	12522.00000	12529.00000	8900.00000
1143.48548	-2.66521	462.60458	13027.02284	13035.39725	9226.69347	1141.49806	417.77778	12885.00000	12894.00000	9134.00000
1149.67984	-2.72584	531.90890	13502.54716	13510.16114	9538.73130	1147.68843	559.85714	13354.00000	13361.00000	9442.00000
1155.87419	-2.59345	392.15180	13961.95475	13972.37745	9815.18698	1153.87880	409.10000	13809.00000	13819.00000	9728.00000
1162.06855	-2.65489	451.74121	14471.96322	14481.68877	10100.17919	1160.06917	430.90000	14303.00000	14313.00000	10004.00000
1168.26290	-2.73250	540.12780	14973.17165	14981.59714	10407.69889	1166.25954	502.11111	14819.00000	14828.00000	10309.00000
1174.45726	-2.74829	560.12705	15432.18175	15440.95064	10681.87334	1172.44991	586.25000	15282.00000	15290.00000	10600.00000
1180.65161	-2.60838	405.86450	15907.32325	15918.75818	10908.86501	1178.64028	447.81818	15752.00000	15763.00000	10837.00000
1186.84597	-2.85941	723.44781	16408.50651	16416.67456	11144.64054	1184.83065	518.60000	16240.00000	16250.00000	11064.00000
1193.04032	-3.02226	1052.58320	16921.12190	16926.29826	11371.75607	1191.02102	1091.60000	16759.00000	16764.00000	11306.00000
1199.23468	-2.78559	610.36347	17423.52159	17432.97346	11539.00037	1197.21139	721.87500	17254.00000	17262.00000	11487.00000
1205.42903	-2.77236	592.05886	17946.70689	17957.42904	11693.43200	1203.40176	558.81818	17779.00000	17790.00000	11643.00000
1211.62339	-2.89450	784.32933	18443.34552	18451.58580	11917.22074	1209.59213	718.33333	18281.00000	18290.00000	11825.00000
1217.81774	-2.88334	764.43882	18976.99658	18985.82782	12363.29895	1215.78250	826.62500	18792.00000	18800.00000	12187.00000
1224.01210	-2.66414	461.46974	19553.19521	19567.00153	12985.23547	1221.97287	550.16667	19367.00000	19379.00000	12777.00000
1230.20645	-2.72325	528.74657	20074.40776	20087.65077	13561.76087	1228.16324	436.00000	19910.00000	19925.00000	13385.00000
1236.40081	-2.85516	716.40012	20599.75229	20608.67123	14083.35389	1234.35361	724.22222	20415.00000	20424.00000	13906.00000
1242.59516	-2.76050	576.10450	21136.51670	21147.89719	14575.13415	1240.54398	595.90909	20973.00000	20984.00000	14429.00000
1248.78952	-2.78190	605.20147	21603.90046	21614.86055	14978.88842	1246.73435	601.18182	21444.00000	21455.00000	14842.00000
1254.98387	-2.79744	627.25556	22139.15349	22149.89524	15426.12000	1252.92472	608.27273	21953.00000	21964.00000	15273.00000
1261.17823	-2.84208	695.15324	22695.73308	22705.54949	15867.90416	1259.11509	679.80000	22516.00000	22526.00000	15728.00000
1267.37258	-2.82934	675.06387	23208.08047	23218.40789	16258.60461	1265.30546	691.90000	23039.00000	23049.00000	16130.00000
1273.56694	-2.80320	635.62858	23771.26894	23782.40498	16700.53410	1271.49583	640.09091	23568.00000	23579.00000	16538.00000
1279.76129	-2.82205	663.82412	24399.03484	24409.86762	17206.25107	1277.68620	651.18182	24194.00000	24205.00000	17042.00000
1285.95565	-2.80244	634.51761	24988.62671	25000.23619	17673.00693	1283.87657	662.27273	24791.00000	24802.00000	17517.00000
1292.15000	-2.74798	559.72578	25587.32745	25600.59759	18145.55019	1290.06694	570.15385	25384.00000	25397.00000	17985.00000
1298.34435	-2.77809	599.91394	26229.53882	26242.22441	18648.97484	1296.25731	580.30769	26005.00000	26018.00000	18474.00000
1304.53871	-2.81857	658.52899	26866.52561	26878.23672	19133.44412	1302.44769	641.16667	26664.00000	26676.00000	18982.00000
1310.73306	-2.79228	619.84480	27500.83127	27513.70993	19607.75645	1308.63806	654.00000	27268.00000	27280.00000	19432.00000
1316.92742	-2.70939	512.13612	28221.25348	28236.87291	20138.88007	1314.82843	535.33333	27983.00000	27998.00000	19968.00000
1323.12177	-2.78912	615.34495	28908.65323	28922.30898	20616.23852	1321.01880	549.00000	28673.00000	28688.00000	20453.00000
1329.31613	-2.82244	664.40897	29584.83896	29597.89480	21075.23463	1327.20917	703.91667	29362.00000	29374.00000	20927.00000
1335.51048	-2.73242	540.02966	30251.85634	30267.92031	21501.53545	1333.39954	542.43750	30016.00000	30032.00000	21353.00000
1341.70484	-2.84747	703.82640	30979.17453	30992.04882	21938.97404	1339.58991	639.28571	30729.00000	30743.00000	21793.00000
1347.89919	-2.87695	753.27536	31644.96003	31657.46099	22285.85625	1345.78028	771.75000	31434.00000	31446.00000	22185.00000
1354.09355	-2.83257	680.09248	32303.27279	32317.56198	22571.93144	1351.97065	686.07143	32056.00000	32070.00000	22465.00000
1360.28790	-2.86933	740.17537	33013.61293	33027.34561	22859.65396	1358.16102	716.28571	32789.00000	32803.00000	22775.00000
1366.48226	-2.92943	850.01814	33653.32965	33665.76426	23100.24552	1364.35139	802.00000	33421.00000	33434.00000	23008.00000
1372.67661	-2.94276	876.51230	34364.12606	34376.71400	23398.44294	1370.54176	903.08333	34122.00000	34134.00000	23297.00000
1378.87097	-2.90610	805.57107	34932.32005	34946.39324	23581.56298	1376.73213	802.57143	34768.00000	34782.00000	23546.00000
1385.06532	-2.98220	959.83534	35219.08586	35231.28825	23468.94067	1382.92250	893.53846	35148.00000	35161.00000	23545.00000
1391.25968	-2.96931	931.77880	35390.18732	35403.48011	23252.81541	1389.11287	1002.66667	35325.00000	35337.00000	23305.00000
1397.45403	-2.81433	652.13040	35543.99544	35562.57653	23163.64542	1395.30324	724.94118	35505.00000	35522.00000	23198.00000
1403.64839	-2.87771	754.58105	35768.80188	35786.21995	23017.69331	1401.49361	662.78947	35649.00000	35668.00000	23075.00000
1409.84274	-2.99266	983.23208	36418.31461	36431.93038	22845.70511	1407.68398	946.57143	36142.00000	36156.00000	22904.00000
1416.03710	-2.96707	926.98112	37385.90813	37401.82445	22700.40559	1413.87435	953.26667	37031.00000	37046.00000	22747.00000
1422.23145	-2.96684	926.48162	38428.58785	38445.68904	22593.98258	1420.06472	909.05882	38063.00000	38080.00000	22626.00000
1428.42581	-2.99471	987.88736	39544.07874	39561.25033	22598.44230	1426.25509	975.11765	39135.00000	39152.00000	22575.00000
1434.62016	-2.98489	965.80526	40671.69006	40690.28132	22717.13336	1432.44546	980.05556	40299.00000	40317.00000	22676.00000
1440.81452	-3.00928	1021.60214	41594.32772	41612.76693	22841.18002	1438.63583	974.42105	41287.00000	41306.00000	22792.00000
1447.00887	-3.06626	1164.82280	42596.69507	42613.39314	23115.82762	1444.82620	1131.23529	42203.00000	42220.00000	22989.00000
1453.20323	-3.06677	1166.19208	43650.83326	43668.19039	23448.37987	1451.01657	1175.47059	43323.00000	43340.00000	23357.00000
1459.39758	-3.05834	1143.77803	44526.92237	44545.14204	23684.12956	1457.20694	1146.00000	44196.00000	44214.00000	23586.00000
1465.59194	-3.09246	1237.24610	45579.93358	45597.38196	24024.00705	1463.39731	1184.11111	45197.00000	45215.00000	23901.00000
1471.78629	-3.10053	1260.45017	46586.64037	46604.36624	24336.32690	1469.58768	1296.17647	46252.00000	46269.00000	24234.00000
1477.98065	-3.08916	1227.89400	47438.66270	47457.24262	24601.97800	1475.77805	1192.36842	47143.00000	47162.00000	24507.00000
1484.17500	-3.08926	1228.18109	48345.37921	48364.62338	24976.61625	1481.96842	1289.05556	48002.00000	48020.00000	24817.00000
1490.36935	-3.02971	1070.80360	49195.50054	49217.56002	25429.17903	1488.15879	1076.09091	48935.00000	48957.00000	25283.00000
1496.56371	-3.11354	1298.79332	49879.75977	49898.34720	25866.24273	1494.34916	1197.35000	49617.00000	49637.00000	25690.00000
1502.75806	-3.14906	1409.46784	50591.13368	50608.25098	26394.70220	1500.53953	1421.47059	50359.00000	50376.00000	26211.00000
1508.95242	-3.07264	1182.06875	51253.94705	51274.60916	26960.47333	1506.72990	1277.68421	50995.00000	51014.00000	26738.00000
1515.14677	-3.02266	1053.55850	51974.54788	51997.69275	27567.46484	1512.92027	1060.39130	51732.00000	51755.00000	27366.00000
1521.34113	-3.06206	1153.61194	52689.45904	52710.74260	28147.09757	1519.11064	1114.09091	52409.00000	52431.00000	27921.00000
1527.53548	-3.05736	1141.20839	53401.95985	53423.66127	28711.87299	1525.30101	1174.38095	53179.00000	53200.00000	28538.00000
1533.72984	-3.03634	1087.28313	54002.35592	54025.24035	29138.36130	1531.49138	1078.73913	53765.00000	53788.00000	28977.00000
1539.92419	-3.06033	1149.03539	54685.66866	54707.52507	29586.21036	1537.68175	1138.13636	54449.00000	54471.00000	29432.00000
1546.11855	-3.06202	1153.51904	55305.50505	55327.45494	30006.41214	1543.87212	1147.86364	55080.00000	55102.00000	29849.00000
1552.31290	-3.05590	1137.35966	55885.78286	55908.17552	30449.33960	1550.06249	1155.40909	55687.00000	55709.00000	30290.00000
1558.50726	-3.04989	1121.74606	56504.22254	56527.04447	30939.82359	1556.25286	1110.00000	56254.00000	56277.00000	30747.00000
1564.70161	-3.07340	1184.12836	57069.58599	57091.25355	31396.31707	1562.44323	1167.09091	56912.00000	56934.00000	31258.00000
1570.89597	-3.05267	1128.92667	57488.91062	57511.77413	31769.25523	1568.63360	1168.72727	57305.00000	57327.00000	31615.00000
1577.09032	-3.03968	1095.67236	58027.63536	58051.16495	32220.91531	1574.82397	1075.33333	57847.00000	57871.00000	32063.00000
1583.28468	-3.12985	1348.50608	58482.60640	58501.75638	32637.88458	1581.01434	1231.00000	58312.00000	58333.00000	32482.00000
1589.47903	-3.12576	1335.85163	58842.89286	58862.56201	33030.12898	1587.20471	1436.83333	58742.00000	58760.00000	32897.00000
1595.67339	-3.04828	1117.57274	59142.35700	59165.23193	33469.18449	1593.39508	1119.47826	59005.00000	59028.00000	33280.00000
1601.86774	-3.08926	1228.17349	59546.69311	59567.43696	34085.21083	1599.58545	1218.14286	59411.00000	59432.00000	33851.00000
1608.06210	-3.08642	1220.15985	59850.53578	59871.13908	34735.68104	1605.77582	1203.38095	59743.00000	59764.00000	34493.00000
1614.25645	-3.08184	1207.37820	60141.62157	60162.15011	35432.96694	1611.96619	1244.35000	60034.00000	60054.00000	35167.00000
1620.45081	-3.03430	1082.17210	60323.44166	60345.81400	36085.86999	1618.15656	1110.90909	60284.00000	60306.00000	35866.00000
1626.64516	-3.04585	1111.35842	60434.45088	60455.88105	36661.91561	1624.34693	1089.00000	60374.00000	60396.00000	36438.00000
1632.83952	-3.03594	1086.26638	60655.34269	60676.87686	37267.70438	1630.53730	1121.14286	60575.00000	60596.00000	37052.00000
1639.03387	-3.04345	1105.21403	60690.27335	60711.22630	37699.37000	1636.72767	1053.31818	60721.00000	60743.00000	37570.00000
1645.22823	-3.06858	1171.07485	60447.19563	60466.36236	37927.46479	1642.91804	1195.73684	60559.00000	60578.00000	37859.00000
1651.42258	-3.05523	1135.61662	59290.56521	59310.01446	37547.29020	1649.10841	1106.40000	59937.00000	59957.00000	37829.00000
1657.61694	-3.04066	1098.13838	56927.67157	56945.53657	36350.14232	1655.29878	1168.33333	57831.00000	57849.00000	36819.00000
1663.81129	-3.18488	1530.67826	55514.94678	55529.71715	35709.65153	1661.48915	1177.94118	55810.00000	55827.00000	35802.00000
1670.00565	-3.24469	1756.68011	53518.97388	53526.96388	34646.52097	1667.67952	1938.80000	54730.00000	54740.00000	35352.00000
1676.20000	-3.75440	5680.64906	49153.87125	49158.85501	31968.28645	1673.86989	2968.33333	50783.00000	50789.00000	32979.00000
0.00000	0.00000	0.00000	0.00000	0.00000	0.00000	1680.06026	8038.50000	46145.00000	46147.00000	30070.00000
0.00000	0.00000	0.00000	0.00000	0.00000	0.00000	1686.25063	-2358.00000	40818.00000	40812.00000	26664.00000
0.00000	0.00000	0.00000	0.00000	0.00000	0.00000	1692.44100	-2358.00000	40818.00000	40812.00000	26664.00000
