'File 8_2016Ò»ÔÂ27_1244.xls
'Part ID 8
'Scan Created 2016-1-27 12:44:55
'Instrument S1-00205
'Version 1.5.7
'Integration Time 10100 µs
'Number of Scans 50
'Units Absorbance
'Thermistor 40.33
Wavelength	Absorbance	Normalized	100%	dark	Raw 1	Native Wvl	Native Norm	Native 100%	Native dark	Native 1
908.10000	-2.88317	764.14175	3374.18868	3375.40339	2345.30478	906.26400	532.50000	3442.00000	3444.00000	2379.00000
914.29435	-2.88712	771.11365	3185.51697	3187.66666	2249.30167	912.45437	959.00000	3231.00000	3232.00000	2273.00000
920.48871	-2.10041	126.01131	3153.83950	3158.73787	2250.28082	918.64474	182.40000	3140.00000	3145.00000	2233.00000
926.68306	-2.53977	346.55725	3245.71853	3248.37362	2327.07662	924.83511	304.66667	3222.00000	3225.00000	2311.00000
932.87742	-2.47297	297.14807	3347.11849	3350.31829	2382.87807	931.02548	316.66667	3305.00000	3308.00000	2358.00000
939.07177	-2.35573	226.84394	3569.21500	3573.92864	2533.75206	937.21585	254.25000	3492.00000	3496.00000	2479.00000
945.26613	-2.28613	193.25666	3808.01150	3813.78889	2698.33782	943.40622	182.33333	3747.00000	3753.00000	2659.00000
951.46048	-2.54279	348.97387	3975.33779	3978.56387	2806.02175	949.59659	289.50000	3925.00000	3929.00000	2771.00000
957.65484	-2.53889	345.85060	4173.45998	4177.42580	2949.05779	955.78696	402.66667	4108.00000	4111.00000	2903.00000
963.84919	-2.39282	247.07024	4346.60860	4352.14708	3066.19614	961.97733	212.33333	4309.00000	4315.00000	3041.00000
970.04355	-2.67993	478.55537	4488.85036	4491.33061	3174.71744	968.16770	435.00000	4430.00000	4433.00000	3128.00000
976.23790	-2.60391	401.71115	4681.39071	4685.00585	3316.30105	974.35807	450.66667	4637.00000	4640.00000	3288.00000
982.43226	-2.40262	252.70953	4824.97664	4830.30002	3406.84144	980.54844	281.40000	4769.00000	4774.00000	3367.00000
988.62661	-2.55903	362.26809	5044.78557	5049.14418	3571.13879	986.73881	292.20000	4980.00000	4985.00000	3524.00000
994.82097	-2.70475	506.70003	5276.35425	5279.35048	3727.69278	992.92918	508.33333	5197.00000	5200.00000	3675.00000
1001.01532	-2.55751	361.00384	5533.10145	5537.59847	3905.57870	999.11955	403.00000	5462.00000	5466.00000	3854.00000
1007.20968	-2.55839	361.73442	5800.42541	5805.22003	4095.50795	1005.30992	335.80000	5703.00000	5708.00000	4029.00000
1013.40403	-2.66700	464.51199	6100.06762	6103.91265	4302.78927	1011.50029	445.25000	6025.00000	6029.00000	4248.00000
1019.59839	-2.64383	440.38537	6318.34269	6322.53020	4473.07055	1017.69066	458.00000	6243.00000	6247.00000	4415.00000
1025.79274	-2.54090	347.45934	6590.09348	6595.70940	4668.69580	1023.88103	380.20000	6508.00000	6513.00000	4612.00000
1031.98710	-2.42907	268.57839	6856.39546	6863.72132	4857.16929	1030.07140	283.42857	6771.00000	6778.00000	4794.00000
1038.18145	-2.52721	336.67206	7131.33234	7137.69228	5058.71095	1036.26177	293.57143	7049.00000	7056.00000	5001.00000
1044.37581	-2.63356	430.08969	7422.54165	7427.48745	5263.65032	1042.45214	427.40000	7323.00000	7328.00000	5191.00000
1050.57016	-2.52879	337.89757	7753.60670	7760.34346	5511.13396	1048.64251	370.50000	7655.00000	7661.00000	5438.00000
1056.76452	-2.45206	283.18073	8044.95645	8053.03573	5723.99849	1054.83288	288.12500	7956.00000	7964.00000	5659.00000
1062.95887	-2.60478	402.51190	8344.77495	8350.83811	5945.77307	1061.02325	340.14286	8247.00000	8254.00000	5873.00000
1069.15323	-2.65787	454.84841	8649.24482	8654.99124	6169.00682	1067.21362	492.00000	8559.00000	8564.00000	6104.00000
1075.34758	-2.48546	305.81486	8937.85128	8945.90866	6380.00104	1073.40399	317.75000	8843.00000	8851.00000	6309.00000
1081.54194	-2.74039	550.03667	9247.56598	9252.20326	6610.57734	1079.59436	436.16667	9152.00000	9158.00000	6541.00000
1087.73629	-2.76286	579.24769	9570.69311	9576.59718	6849.67486	1085.78473	674.75000	9462.00000	9466.00000	6767.00000
1093.93065	-2.27446	188.13273	9918.24000	9929.83707	7109.93446	1091.97510	253.63636	9813.00000	9824.00000	7034.00000
1100.12500	-2.68628	485.59901	10263.53096	10270.46266	7350.99063	1098.16547	320.77778	10147.00000	10156.00000	7269.00000
1106.31935	-2.84296	696.55477	10652.67119	10657.14925	7633.17621	1104.35584	747.75000	10530.00000	10534.00000	7543.00000
1112.51371	-2.61251	409.74092	11030.17335	11037.49408	7908.83527	1110.54621	442.14286	10911.00000	10918.00000	7823.00000
1118.70806	-2.64994	446.62377	11415.53081	11422.84855	8186.38912	1116.73658	457.42857	11290.00000	11297.00000	8095.00000
1124.90242	-2.65617	453.07645	11825.98417	11833.52157	8486.90418	1122.92695	413.87500	11693.00000	11701.00000	8390.00000
1131.09677	-2.76445	581.36971	12249.90190	12255.75491	8790.26187	1129.11732	571.00000	12114.00000	12120.00000	8694.00000
1137.29113	-2.65738	454.34195	12635.57805	12643.52749	9053.04222	1135.30769	507.28571	12522.00000	12529.00000	8978.00000
1143.48548	-2.65574	452.62953	13027.02284	13035.39725	9308.87811	1141.49806	408.77778	12885.00000	12894.00000	9215.00000
1149.67984	-2.71651	520.60382	13502.54716	13510.16114	9622.90069	1147.68843	547.85714	13354.00000	13361.00000	9526.00000
1155.87419	-2.58459	384.22842	13961.95475	13972.37745	9899.48717	1153.87880	400.70000	13809.00000	13819.00000	9812.00000
1162.06855	-2.64591	442.49404	14471.96322	14481.68877	10189.68411	1160.06917	422.20000	14303.00000	14313.00000	10091.00000
1168.26290	-2.72348	529.02869	14973.17165	14981.59714	10501.91414	1166.25954	491.66667	14819.00000	14828.00000	10403.00000
1174.45726	-2.73968	549.13031	15432.18175	15440.95064	10775.18787	1172.44991	574.62500	15282.00000	15290.00000	10693.00000
1180.65161	-2.60006	398.16595	15907.32325	15918.75818	11004.20974	1178.64028	439.18182	15752.00000	15763.00000	10932.00000
1186.84597	-2.85110	709.74524	16408.50651	16416.67456	11244.02162	1184.83065	508.90000	16240.00000	16250.00000	11161.00000
1193.04032	-3.01401	1032.79537	16921.12190	16926.29826	11475.78195	1191.02102	1070.80000	16759.00000	16764.00000	11410.00000
1199.23468	-2.77806	599.87804	17423.52159	17432.97346	11640.98245	1197.21139	709.12500	17254.00000	17262.00000	11589.00000
1205.42903	-2.76499	582.09053	17946.70689	17957.42904	11798.69372	1203.40176	549.36364	17779.00000	17790.00000	11747.00000
1211.62339	-2.88717	771.19665	18443.34552	18451.58580	12026.66174	1209.59213	706.33333	18281.00000	18290.00000	11933.00000
1217.81774	-2.87587	751.39353	18976.99658	18985.82782	12476.14756	1215.78250	812.62500	18792.00000	18800.00000	12299.00000
1224.01210	-2.65623	453.14204	19553.19521	19567.00153	13104.50823	1221.97287	540.50000	19367.00000	19379.00000	12893.00000
1230.20645	-2.71468	518.42090	20074.40776	20087.65077	13689.10934	1228.16324	427.60000	19910.00000	19925.00000	13511.00000
1236.40081	-2.84650	702.25753	20599.75229	20608.67123	14212.30978	1234.35361	710.00000	20415.00000	20424.00000	14034.00000
1242.59516	-2.75159	564.39931	21136.51670	21147.89719	14708.49984	1240.54398	583.90909	20973.00000	20984.00000	14561.00000
1248.78952	-2.77281	592.66393	21603.90046	21614.86055	15116.45929	1246.73435	588.81818	21444.00000	21455.00000	14978.00000
1254.98387	-2.78813	613.95064	22139.15349	22149.89524	15568.69250	1252.92472	595.45455	21953.00000	21964.00000	15414.00000
1261.17823	-2.83272	680.33064	22695.73308	22705.54949	16013.69078	1259.11509	665.30000	22516.00000	22526.00000	15873.00000
1267.37258	-2.81988	660.51123	23208.08047	23218.40789	16408.70097	1265.30546	677.10000	23039.00000	23049.00000	16278.00000
1273.56694	-2.79362	621.76033	23771.26894	23782.40498	16855.04507	1271.49583	626.09091	23568.00000	23579.00000	16692.00000
1279.76129	-2.81265	649.59939	24399.03484	24409.86762	17360.48953	1277.68620	637.18182	24194.00000	24205.00000	17196.00000
1285.95565	-2.79275	620.51241	24988.62671	25000.23619	17835.03437	1283.87657	647.90909	24791.00000	24802.00000	17675.00000
1292.15000	-2.73798	546.99534	25587.32745	25600.59759	18314.96217	1290.06694	557.15385	25384.00000	25397.00000	18154.00000
1298.34435	-2.76831	586.55541	26229.53882	26242.22441	18818.03711	1296.25731	567.38462	26005.00000	26018.00000	18642.00000
1304.53871	-2.80856	643.52375	26866.52561	26878.23672	19309.96435	1302.44769	626.66667	26664.00000	26676.00000	19156.00000
1310.73306	-2.78222	605.65378	27500.83127	27513.70993	19788.65595	1308.63806	639.00000	27268.00000	27280.00000	19612.00000
1316.92742	-2.69934	500.42112	28221.25348	28236.87291	20324.14047	1314.82843	523.13333	27983.00000	27998.00000	20151.00000
1323.12177	-2.77901	601.18348	28908.65323	28922.30898	20807.53776	1321.01880	536.33333	28673.00000	28688.00000	20643.00000
1329.31613	-2.81240	649.23818	29584.83896	29597.89480	21269.81768	1327.20917	687.83333	29362.00000	29374.00000	21120.00000
1335.51048	-2.72244	527.77021	30251.85634	30267.92031	21700.60991	1333.39954	530.06250	30016.00000	30032.00000	21551.00000
1341.70484	-2.83763	688.06291	30979.17453	30992.04882	22141.73840	1339.58991	624.92857	30729.00000	30743.00000	21994.00000
1347.89919	-2.86727	736.66298	31644.96003	31657.46099	22492.34360	1345.78028	754.58333	31434.00000	31446.00000	22391.00000
1354.09355	-2.82330	665.73769	32303.27279	32317.56198	22777.87205	1351.97065	671.35714	32056.00000	32070.00000	22671.00000
1360.28790	-2.86023	724.82633	33013.61293	33027.34561	23070.29372	1358.16102	701.42857	32789.00000	32803.00000	22983.00000
1366.48226	-2.92051	832.73934	33653.32965	33665.76426	23315.26441	1364.35139	785.46154	33421.00000	33434.00000	23223.00000
1372.67661	-2.93416	859.32520	34364.12606	34376.71400	23613.64882	1370.54176	885.25000	34122.00000	34134.00000	23511.00000
1378.87097	-2.89761	789.96923	34932.32005	34946.39324	23801.59182	1376.73213	786.92857	34768.00000	34782.00000	23765.00000
1385.06532	-2.97403	941.94393	35219.08586	35231.28825	23688.44284	1382.92250	876.61538	35148.00000	35161.00000	23765.00000
1391.25968	-2.96148	915.11992	35390.18732	35403.48011	23469.74084	1389.11287	984.50000	35325.00000	35337.00000	23523.00000
1397.45403	-2.80676	640.85823	35543.99544	35562.57653	23378.00410	1395.30324	712.29412	35505.00000	35522.00000	23413.00000
1403.64839	-2.87037	741.94853	35768.80188	35786.21995	23231.84861	1401.49361	651.52632	35649.00000	35668.00000	23289.00000
1409.84274	-2.98577	967.77338	36418.31461	36431.93038	23058.91711	1407.68398	931.28571	36142.00000	36156.00000	23118.00000
1416.03710	-2.96076	913.59829	37385.90813	37401.82445	22912.79315	1413.87435	939.13333	37031.00000	37046.00000	22959.00000
1422.23145	-2.96099	914.09689	38428.58785	38445.68904	22805.97148	1420.06472	896.52941	38063.00000	38080.00000	22839.00000
1428.42581	-2.98928	975.62499	39544.07874	39561.25033	22808.95847	1426.25509	962.76471	39135.00000	39152.00000	22785.00000
1434.62016	-2.97969	954.30937	40671.69006	40690.28132	22930.99495	1432.44546	968.22222	40299.00000	40317.00000	22889.00000
1440.81452	-3.00426	1009.84673	41594.32772	41612.76693	23057.24728	1438.63583	963.10526	41287.00000	41306.00000	23007.00000
1447.00887	-3.06131	1151.62744	42596.69507	42613.39314	23336.69016	1444.82620	1118.35294	42203.00000	42220.00000	23208.00000
1453.20323	-3.06196	1153.34460	43650.83326	43668.19039	23671.10197	1451.01657	1162.35294	43323.00000	43340.00000	23580.00000
1459.39758	-3.05367	1131.54906	44526.92237	44545.14204	23907.17057	1457.20694	1133.66667	44196.00000	44214.00000	23808.00000
1465.59194	-3.08782	1224.09803	45579.93358	45597.38196	24253.36080	1463.39731	1171.50000	45197.00000	45215.00000	24128.00000
1471.78629	-3.09597	1247.30868	46586.64037	46604.36624	24568.28019	1469.58768	1282.52941	46252.00000	46269.00000	24466.00000
1477.98065	-3.08470	1215.34019	47438.66270	47457.24262	24835.73944	1475.77805	1180.15789	47143.00000	47162.00000	24739.00000
1484.17500	-3.08479	1215.60854	48345.37921	48364.62338	25215.89751	1481.96842	1275.83333	48002.00000	48020.00000	25055.00000
1490.36935	-3.02525	1059.87275	49195.50054	49217.56002	25672.04485	1488.15879	1065.13636	48935.00000	48957.00000	25524.00000
1496.56371	-3.10902	1285.34869	49879.75977	49898.34720	26115.06100	1494.34916	1185.00000	49617.00000	49637.00000	25937.00000
1502.75806	-3.14451	1394.79755	50591.13368	50608.25098	26646.61708	1500.53953	1406.70588	50359.00000	50376.00000	26462.00000
1508.95242	-3.06801	1169.51727	51253.94705	51274.60916	27218.87703	1506.72990	1264.26316	50995.00000	51014.00000	26993.00000
1515.14677	-3.01788	1042.02242	51974.54788	51997.69275	27834.82705	1512.92027	1048.86957	51732.00000	51755.00000	27631.00000
1521.34113	-3.05723	1140.85521	52689.45904	52710.74260	28418.71876	1519.11064	1101.81818	52409.00000	52431.00000	28191.00000
1527.53548	-3.05247	1128.42082	53401.95985	53423.66127	28988.83562	1525.30101	1161.28571	53179.00000	53200.00000	28813.00000
1533.72984	-3.03141	1074.99367	54002.35592	54025.24035	29419.62314	1531.49138	1066.56522	53765.00000	53788.00000	29257.00000
1539.92419	-3.05540	1136.04490	54685.66866	54707.52507	29870.23477	1537.68175	1125.27273	54449.00000	54471.00000	29715.00000
1546.11855	-3.05703	1140.31888	55305.50505	55327.45494	30296.15176	1543.87212	1134.81818	55080.00000	55102.00000	30136.00000
1552.31290	-3.05084	1124.19146	55885.78286	55908.17552	30744.08557	1550.06249	1142.04545	55687.00000	55709.00000	30584.00000
1558.50726	-3.04484	1108.76758	56504.22254	56527.04447	31235.87583	1556.25286	1097.17391	56254.00000	56277.00000	31042.00000
1564.70161	-3.06829	1170.27317	57069.58599	57091.25355	31696.92429	1562.44323	1153.50000	56912.00000	56934.00000	31557.00000
1570.89597	-3.04746	1115.47474	57488.91062	57511.77413	32076.07483	1568.63360	1154.90909	57305.00000	57327.00000	31919.00000
1577.09032	-3.03441	1082.45647	58027.63536	58051.16495	32532.54573	1574.82397	1062.37500	57847.00000	57871.00000	32374.00000
1583.28468	-3.12459	1332.27294	58482.60640	58501.75638	32948.90319	1581.01434	1216.19048	58312.00000	58333.00000	32793.00000
1589.47903	-3.12039	1319.44485	58842.89286	58862.56201	33348.14048	1587.20471	1419.38889	58742.00000	58760.00000	33211.00000
1595.67339	-3.04275	1103.45539	59142.35700	59165.23193	33793.38816	1593.39508	1105.39130	59005.00000	59028.00000	33604.00000
1601.86774	-3.08370	1212.54168	59546.69311	59567.43696	34409.79565	1599.58545	1202.76190	59411.00000	59432.00000	34174.00000
1608.06210	-3.08062	1203.98280	59850.53578	59871.13908	35068.64182	1605.77582	1187.66667	59743.00000	59764.00000	34823.00000
1614.25645	-3.07585	1190.83845	60141.62157	60162.15011	35771.94890	1611.96619	1227.50000	60034.00000	60054.00000	35504.00000
1620.45081	-3.02810	1066.83772	60323.44166	60345.81400	36429.57866	1618.15656	1095.36364	60284.00000	60306.00000	36208.00000
1626.64516	-3.03943	1095.03013	60434.45088	60455.88105	37011.32041	1624.34693	1073.22727	60374.00000	60396.00000	36785.00000
1632.83952	-3.02927	1069.73038	60655.34269	60676.87686	37624.41673	1630.53730	1104.28571	60575.00000	60596.00000	37406.00000
1639.03387	-3.03658	1087.87351	60690.27335	60711.22630	38059.99534	1636.72767	1036.95455	60721.00000	60743.00000	37930.00000
1645.22823	-3.06157	1152.31065	60447.19563	60466.36236	38289.19627	1642.91804	1176.73684	60559.00000	60578.00000	38220.00000
1651.42258	-3.04802	1116.90594	59290.56521	59310.01446	37904.86088	1649.10841	1088.35000	59937.00000	59957.00000	38190.00000
1657.61694	-3.03339	1079.91615	56927.67157	56945.53657	36694.46692	1655.29878	1148.94444	57831.00000	57849.00000	37168.00000
1663.81129	-3.17721	1503.87344	55514.94678	55529.71715	36052.37584	1661.48915	1157.88235	55810.00000	55827.00000	36143.00000
1670.00565	-3.23701	1725.86178	53518.97388	53526.96388	34985.62190	1667.67952	1904.40000	54730.00000	54740.00000	35696.00000
1676.20000	-3.74615	5573.76375	49153.87125	49158.85501	32287.34607	1673.86989	2914.00000	50783.00000	50789.00000	33305.00000
0.00000	0.00000	0.00000	0.00000	0.00000	0.00000	1680.06026	7885.50000	46145.00000	46147.00000	30376.00000
0.00000	0.00000	0.00000	0.00000	0.00000	0.00000	1686.25063	-2311.66667	40818.00000	40812.00000	26942.00000
0.00000	0.00000	0.00000	0.00000	0.00000	0.00000	1692.44100	-2311.66667	40818.00000	40812.00000	26942.00000
