'File 9_2016Ò»ÔÂ27_1244.xls
'Part ID 9
'Scan Created 2016-1-27 12:44:56
'Instrument S1-00205
'Version 1.5.7
'Integration Time 10100 µs
'Number of Scans 50
'Units Absorbance
'Thermistor 40.33
Wavelength	Absorbance	Normalized	100%	dark	Raw 1	Native Wvl	Native Norm	Native 100%	Native dark	Native 1
908.10000	-2.89167	779.23303	3374.18868	3375.40339	2325.90334	906.26400	541.50000	3442.00000	3444.00000	2361.00000
914.29435	-2.89658	788.09149	3185.51697	3187.66666	2228.94501	912.45437	980.00000	3231.00000	3232.00000	2252.00000
920.48871	-2.10819	128.29035	3153.83950	3158.73787	2232.43906	918.64474	186.00000	3140.00000	3145.00000	2215.00000
926.68306	-2.54884	353.86675	3245.71853	3248.37362	2307.62565	924.83511	311.00000	3222.00000	3225.00000	2292.00000
932.87742	-2.48195	303.35164	3347.11849	3350.31829	2362.73255	931.02548	323.33333	3305.00000	3308.00000	2338.00000
939.07177	-2.36470	231.57730	3569.21500	3573.92864	2511.93536	937.21585	259.50000	3492.00000	3496.00000	2458.00000
945.26613	-2.29564	197.53130	3808.01150	3813.78889	2673.69312	943.40622	186.33333	3747.00000	3753.00000	2635.00000
951.46048	-2.55260	356.94576	3975.33779	3978.56387	2779.15424	949.59659	296.00000	3925.00000	3929.00000	2745.00000
957.65484	-2.54864	353.70178	4173.45998	4177.42580	2921.67160	955.78696	412.00000	4108.00000	4111.00000	2875.00000
963.84919	-2.40186	252.26796	4346.60860	4352.14708	3039.42563	961.97733	216.66667	4309.00000	4315.00000	3015.00000
970.04355	-2.68992	489.68300	4488.85036	4491.33061	3143.94374	968.16770	445.00000	4430.00000	4433.00000	3098.00000
976.23790	-2.61427	411.40139	4681.39071	4685.00585	3283.15125	974.35807	461.33333	4637.00000	4640.00000	3256.00000
982.43226	-2.41365	259.20938	4824.97664	4830.30002	3370.33556	980.54844	288.60000	4769.00000	4774.00000	3331.00000
988.62661	-2.57001	371.54663	5044.78557	5049.14418	3533.44092	986.73881	299.60000	4980.00000	4985.00000	3487.00000
994.82097	-2.71602	520.01861	5276.35425	5279.35048	3686.85678	992.92918	521.66667	5197.00000	5200.00000	3635.00000
1001.01532	-2.56861	370.34623	5533.10145	5537.59847	3863.28938	999.11955	413.50000	5462.00000	5466.00000	3812.00000
1007.20968	-2.56990	371.45267	5800.42541	5805.22003	4049.73758	1005.30992	344.60000	5703.00000	5708.00000	3985.00000
1013.40403	-2.67857	477.05179	6100.06762	6103.91265	4254.15925	1011.50029	457.50000	6025.00000	6029.00000	4199.00000
1019.59839	-2.65489	451.73995	6318.34269	6322.53020	4425.20243	1017.69066	469.75000	6243.00000	6247.00000	4368.00000
1025.79274	-2.55236	356.74971	6590.09348	6595.70940	4617.50163	1023.88103	390.40000	6508.00000	6513.00000	4561.00000
1031.98710	-2.44066	275.84427	6856.39546	6863.72132	4802.71271	1030.07140	290.85714	6771.00000	6778.00000	4742.00000
1038.18145	-2.53994	346.68887	7131.33234	7137.69228	4996.62211	1036.26177	302.28571	7049.00000	7056.00000	4940.00000
1044.37581	-2.64594	442.53068	7422.54165	7427.48745	5201.17353	1042.45214	439.80000	7323.00000	7328.00000	5129.00000
1050.57016	-2.54139	347.85209	7753.60670	7760.34346	5444.84984	1048.64251	381.33333	7655.00000	7661.00000	5373.00000
1056.76452	-2.46495	291.70822	8044.95645	8053.03573	5653.81092	1054.83288	296.75000	7956.00000	7964.00000	5590.00000
1062.95887	-2.61803	414.98286	8344.77495	8350.83811	5871.31816	1061.02325	350.57143	8247.00000	8254.00000	5800.00000
1069.15323	-2.67121	469.03503	8649.24482	8654.99124	6091.60338	1067.21362	507.40000	8559.00000	8564.00000	6027.00000
1075.34758	-2.49862	315.22220	8937.85128	8945.90866	6301.10037	1073.40399	327.50000	8843.00000	8851.00000	6231.00000
1081.54194	-2.75353	566.93149	9247.56598	9252.20326	6529.34850	1079.59436	449.66667	9152.00000	9158.00000	6460.00000
1087.73629	-2.77591	596.90477	9570.69311	9576.59718	6766.08968	1085.78473	695.25000	9462.00000	9466.00000	6685.00000
1093.93065	-2.28815	194.15406	9918.24000	9929.83707	7020.64154	1091.97510	261.63636	9813.00000	9824.00000	6946.00000
1100.12500	-2.69977	500.91897	10263.53096	10270.46266	7258.99188	1098.16547	330.88889	10147.00000	10156.00000	7178.00000
1106.31935	-2.85659	718.76679	10652.67119	10657.14925	7536.51474	1104.35584	771.50000	10530.00000	10534.00000	7448.00000
1112.51371	-2.62635	423.01064	11030.17335	11037.49408	7807.71004	1110.54621	456.42857	10911.00000	10918.00000	7723.00000
1118.70806	-2.66366	460.95291	11415.53081	11422.84855	8082.43462	1116.73658	472.14286	11290.00000	11297.00000	7992.00000
1124.90242	-2.67014	467.88596	11825.98417	11833.52157	8377.78794	1122.92695	427.25000	11693.00000	11701.00000	8283.00000
1131.09677	-2.77871	600.76977	12249.90190	12255.75491	8674.42776	1129.11732	590.00000	12114.00000	12120.00000	8580.00000
1137.29113	-2.67147	469.31954	12635.57805	12643.52749	8934.86747	1135.30769	524.14286	12522.00000	12529.00000	8860.00000
1143.48548	-2.66958	467.28219	13027.02284	13035.39725	9188.26517	1141.49806	422.00000	12885.00000	12894.00000	9096.00000
1149.67984	-2.73041	537.54498	13502.54716	13510.16114	9496.50164	1147.68843	565.71429	13354.00000	13361.00000	9401.00000
1155.87419	-2.59807	396.34230	13961.95475	13972.37745	9770.84458	1153.87880	413.50000	13809.00000	13819.00000	9684.00000
1162.06855	-2.65917	456.21404	14471.96322	14481.68877	10056.71527	1160.06917	435.30000	14303.00000	14313.00000	9960.00000
1168.26290	-2.73686	545.57579	14973.17165	14981.59714	10361.69044	1166.25954	507.00000	14819.00000	14828.00000	10265.00000
1174.45726	-2.75281	565.99703	15432.18175	15440.95064	10632.13595	1172.44991	592.50000	15282.00000	15290.00000	10550.00000
1180.65161	-2.61263	409.85239	15907.32325	15918.75818	10860.01422	1178.64028	452.18182	15752.00000	15763.00000	10789.00000
1186.84597	-2.86343	730.18442	16408.50651	16416.67456	11094.60130	1184.83065	523.70000	16240.00000	16250.00000	11013.00000
1193.04032	-3.02610	1061.93862	16921.12190	16926.29826	11322.15207	1191.02102	1101.20000	16759.00000	16764.00000	11258.00000
1199.23468	-2.78958	615.99886	17423.52159	17432.97346	11485.27078	1197.21139	728.62500	17254.00000	17262.00000	11433.00000
1205.42903	-2.77587	596.86129	17946.70689	17957.42904	11642.41178	1203.40176	563.45455	17779.00000	17790.00000	11592.00000
1211.62339	-2.89806	790.78079	18443.34552	18451.58580	11863.57747	1209.59213	724.22222	18281.00000	18290.00000	11772.00000
1217.81774	-2.88701	770.91870	18976.99658	18985.82782	12306.88204	1215.78250	833.50000	18792.00000	18800.00000	12132.00000
1224.01210	-2.66804	465.62525	19553.19521	19567.00153	12926.23035	1221.97287	555.08333	19367.00000	19379.00000	12718.00000
1230.20645	-2.72712	533.48810	20074.40776	20087.65077	13503.54145	1228.16324	439.86667	19910.00000	19925.00000	13327.00000
1236.40081	-2.85932	723.30612	20599.75229	20608.67123	14019.97943	1234.35361	731.00000	20415.00000	20424.00000	13845.00000
1242.59516	-2.76491	581.97993	21136.51670	21147.89719	14508.33858	1240.54398	602.00000	20973.00000	20984.00000	14362.00000
1248.78952	-2.78614	611.14566	21603.90046	21614.86055	14913.63436	1246.73435	607.09091	21444.00000	21455.00000	14777.00000
1254.98387	-2.80193	633.76855	22139.15349	22149.89524	15356.38745	1252.92472	614.45455	21953.00000	21964.00000	15205.00000
1261.17823	-2.84677	702.69742	22695.73308	22705.54949	15793.62471	1259.11509	687.10000	22516.00000	22526.00000	15655.00000
1267.37258	-2.83395	682.26115	23208.08047	23218.40789	16184.49827	1265.30546	699.40000	23039.00000	23049.00000	16055.00000
1273.56694	-2.80774	642.30307	23771.26894	23782.40498	16626.12832	1271.49583	646.72727	23568.00000	23579.00000	16465.00000
1279.76129	-2.82688	671.24803	24399.03484	24409.86762	17125.68677	1277.68620	658.36364	24194.00000	24205.00000	16963.00000
1285.95565	-2.80730	641.65517	24988.62671	25000.23619	17590.59599	1283.87657	669.72727	24791.00000	24802.00000	17435.00000
1292.15000	-2.75280	565.97255	25587.32745	25600.59759	18062.33087	1290.06694	576.53846	25384.00000	25397.00000	17902.00000
1298.34435	-2.78291	606.61566	26229.53882	26242.22441	18564.16677	1296.25731	586.76923	26005.00000	26018.00000	18390.00000
1304.53871	-2.82349	666.02657	26866.52561	26878.23672	19045.24291	1302.44769	648.41667	26664.00000	26676.00000	18895.00000
1310.73306	-2.79722	626.93672	27500.83127	27513.70993	19517.36761	1308.63806	661.50000	27268.00000	27280.00000	19342.00000
1316.92742	-2.71428	517.93567	28221.25348	28236.87291	20047.10805	1314.82843	541.40000	27983.00000	27998.00000	19877.00000
1323.12177	-2.79407	622.39891	28908.65323	28922.30898	20521.03298	1321.01880	555.26667	28673.00000	28688.00000	20359.00000
1329.31613	-2.82738	672.01267	29584.83896	29597.89480	20977.79351	1327.20917	712.00000	29362.00000	29374.00000	20830.00000
1335.51048	-2.73727	546.09431	30251.85634	30267.92031	21402.99886	1333.39954	548.56250	30016.00000	30032.00000	21255.00000
1341.70484	-2.85228	711.66784	30979.17453	30992.04882	21838.14253	1339.58991	646.42857	30729.00000	30743.00000	21693.00000
1347.89919	-2.88177	761.67950	31644.96003	31657.46099	22181.24207	1345.78028	780.33333	31434.00000	31446.00000	22082.00000
1354.09355	-2.83731	687.55908	32303.27279	32317.56198	22464.92300	1351.97065	693.71429	32056.00000	32070.00000	22358.00000
1360.28790	-2.87384	747.89197	33013.61293	33027.34561	22753.70000	1358.16102	723.85714	32789.00000	32803.00000	22669.00000
1366.48226	-2.93384	858.68842	33653.32965	33665.76426	22992.39981	1364.35139	810.23077	33421.00000	33434.00000	22901.00000
1372.67661	-2.94705	885.22260	34364.12606	34376.71400	23289.49028	1370.54176	912.16667	34122.00000	34134.00000	23188.00000
1378.87097	-2.91019	813.17873	34932.32005	34946.39324	23474.13459	1376.73213	810.28571	34768.00000	34782.00000	23438.00000
1385.06532	-2.98614	968.59177	35219.08586	35231.28825	23361.59610	1382.92250	901.76923	35148.00000	35161.00000	23438.00000
1391.25968	-2.97315	940.05223	35390.18732	35403.48011	23145.06890	1389.11287	1011.66667	35325.00000	35337.00000	23197.00000
1397.45403	-2.81807	657.76487	35543.99544	35562.57653	23056.57302	1395.30324	731.23529	35505.00000	35522.00000	23091.00000
1403.64839	-2.88129	760.82740	35768.80188	35786.21995	22911.57867	1401.49361	668.42105	35649.00000	35668.00000	22968.00000
1409.84274	-2.99596	990.73722	36418.31461	36431.93038	22742.24941	1407.68398	954.00000	36142.00000	36156.00000	22800.00000
1416.03710	-2.97009	933.44335	37385.90813	37401.82445	22597.88181	1413.87435	960.13333	37031.00000	37046.00000	22644.00000
1422.23145	-2.96963	932.46917	38428.58785	38445.68904	22491.49977	1420.06472	915.05882	38063.00000	38080.00000	22524.00000
1428.42581	-2.99738	993.97556	39544.07874	39561.25033	22493.91448	1426.25509	981.23529	39135.00000	39152.00000	22471.00000
1434.62016	-2.98743	971.46117	40671.69006	40690.28132	22611.94142	1432.44546	985.88889	40299.00000	40317.00000	22571.00000
1440.81452	-3.01169	1027.27388	41594.32772	41612.76693	22736.83744	1438.63583	979.94737	41287.00000	41306.00000	22687.00000
1447.00887	-3.06855	1170.97308	42596.69507	42613.39314	23012.98309	1444.82620	1137.29412	42203.00000	42220.00000	22886.00000
1453.20323	-3.06908	1172.40258	43650.83326	43668.19039	23340.60191	1451.01657	1181.64706	43323.00000	43340.00000	23252.00000
1459.39758	-3.06061	1149.77218	44526.92237	44545.14204	23574.86564	1457.20694	1152.16667	44196.00000	44214.00000	23475.00000
1465.59194	-3.09453	1243.17151	45579.93358	45597.38196	23920.77181	1463.39731	1189.88889	45197.00000	45215.00000	23797.00000
1471.78629	-3.10268	1266.73159	46586.64037	46604.36624	24225.18095	1469.58768	1302.47059	46252.00000	46269.00000	24127.00000
1477.98065	-3.09132	1234.02200	47438.66270	47457.24262	24487.73207	1475.77805	1198.47368	47143.00000	47162.00000	24391.00000
1484.17500	-3.09128	1233.90851	48345.37921	48364.62338	24867.52228	1481.96842	1295.11111	48002.00000	48020.00000	24708.00000
1490.36935	-3.03176	1075.85912	49195.50054	49217.56002	25316.85024	1488.15879	1081.18182	48935.00000	48957.00000	25171.00000
1496.56371	-3.11558	1304.90588	49879.75977	49898.34720	25753.26649	1494.34916	1202.95000	49617.00000	49637.00000	25578.00000
1502.75806	-3.15115	1416.29551	50591.13368	50608.25098	26277.33378	1500.53953	1428.29412	50359.00000	50376.00000	26095.00000
1508.95242	-3.07478	1187.88849	51253.94705	51274.60916	26840.78384	1506.72990	1283.94737	50995.00000	51014.00000	26619.00000
1515.14677	-3.02482	1058.81742	51974.54788	51997.69275	27445.54665	1512.92027	1065.65217	51732.00000	51755.00000	27245.00000
1521.34113	-3.06423	1159.38180	52689.45904	52710.74260	28024.23849	1519.11064	1119.68182	52409.00000	52431.00000	27798.00000
1527.53548	-3.05954	1146.94573	53401.95985	53423.66127	28587.56258	1525.30101	1180.23810	53179.00000	53200.00000	28415.00000
1533.72984	-3.03856	1092.85299	54002.35592	54025.24035	29010.89544	1531.49138	1084.26087	53765.00000	53788.00000	28850.00000
1539.92419	-3.06256	1154.94944	54685.66866	54707.52507	29456.90078	1537.68175	1143.95455	54449.00000	54471.00000	29304.00000
1546.11855	-3.06425	1159.44369	55305.50505	55327.45494	29876.36513	1543.87212	1153.81818	55080.00000	55102.00000	29718.00000
1552.31290	-3.05809	1143.10936	55885.78286	55908.17552	30320.58651	1550.06249	1161.22727	55687.00000	55709.00000	30162.00000
1558.50726	-3.05215	1127.59947	56504.22254	56527.04447	30806.34844	1556.25286	1115.73913	56254.00000	56277.00000	30615.00000
1564.70161	-3.07573	1190.48899	57069.58599	57091.25355	31258.22936	1562.44323	1173.27273	56912.00000	56934.00000	31122.00000
1570.89597	-3.05500	1135.00722	57488.91062	57511.77413	31630.76868	1568.63360	1175.09091	57305.00000	57327.00000	31475.00000
1577.09032	-3.04194	1101.39897	58027.63536	58051.16495	32085.82407	1574.82397	1080.95833	57847.00000	57871.00000	31928.00000
1583.28468	-3.13219	1355.79455	58482.60640	58501.75638	32498.10189	1581.01434	1237.57143	58312.00000	58333.00000	32344.00000
1589.47903	-3.12811	1343.10424	58842.89286	58862.56201	32889.99979	1587.20471	1444.66667	58742.00000	58760.00000	32756.00000
1595.67339	-3.05065	1123.68660	59142.35700	59165.23193	33328.76067	1593.39508	1125.52174	59005.00000	59028.00000	33141.00000
1601.86774	-3.09176	1235.26780	59546.69311	59567.43696	33937.81086	1599.58545	1225.04762	59411.00000	59432.00000	33706.00000
1608.06210	-3.08901	1227.47544	59850.53578	59871.13908	34585.09947	1605.77582	1210.52381	59743.00000	59764.00000	34343.00000
1614.25645	-3.08450	1214.77453	60141.62157	60162.15011	35281.38205	1611.96619	1251.90000	60034.00000	60054.00000	35016.00000
1620.45081	-3.03709	1089.15004	60323.44166	60345.81400	35929.52659	1618.15656	1117.90909	60284.00000	60306.00000	35712.00000
1626.64516	-3.04873	1118.74886	60434.45088	60455.88105	36503.66815	1624.34693	1096.22727	60374.00000	60396.00000	36279.00000
1632.83952	-3.03882	1093.51121	60655.34269	60676.87686	37111.40415	1630.53730	1128.57143	60575.00000	60596.00000	36896.00000
1639.03387	-3.04647	1112.94479	60690.27335	60711.22630	37538.63236	1636.72767	1060.54545	60721.00000	60743.00000	37411.00000
1645.22823	-3.07168	1179.44521	60447.19563	60466.36236	37766.37587	1642.91804	1204.26316	60559.00000	60578.00000	37697.00000
1651.42258	-3.05833	1143.74908	59290.56521	59310.01446	37391.12160	1649.10841	1114.30000	59937.00000	59957.00000	37671.00000
1657.61694	-3.04386	1106.25819	56927.67157	56945.53657	36199.47249	1655.29878	1176.83333	57831.00000	57849.00000	36666.00000
1663.81129	-3.18791	1541.39647	55514.94678	55529.71715	35566.93020	1661.48915	1186.52941	55810.00000	55827.00000	35656.00000
1670.00565	-3.24785	1769.47979	53518.97388	53526.96388	34518.34666	1667.67952	1952.30000	54730.00000	54740.00000	35217.00000
1676.20000	-3.75689	5713.33106	49153.87125	49158.85501	31863.75954	1673.86989	2987.33333	50783.00000	50789.00000	32865.00000
0.00000	0.00000	0.00000	0.00000	0.00000	0.00000	1680.06026	8082.50000	46145.00000	46147.00000	29982.00000
0.00000	0.00000	0.00000	0.00000	0.00000	0.00000	1686.25063	-2369.00000	40818.00000	40812.00000	26598.00000
0.00000	0.00000	0.00000	0.00000	0.00000	0.00000	1692.44100	-2369.00000	40818.00000	40812.00000	26598.00000
