'File neuburger liquid milk-塑料_1_2016一月28_1111.xls
'Part ID neuburger liquid milk-塑料_1
'Scan Created 2016/1/28 11:11:10
'Instrument S1-00205
'Version 1.5.7
'Integration Time 10100 s
'Number of Scans 50
'Units Absorbance
'Thermistor 47.10
Wavelength	Absorbance	Normalized	100%	dark	Raw 1	Native Wvl	Native Norm	Native 100%	Native dark	Native 1
908.10000	0.63483	0.23183	3595.82598	881.87120	1509.86372	906.26400	0.22183	3684.00000	880.00000	1502.00000
914.29435	0.57728	0.26468	3338.07467	866.26472	1520.85814	912.45437	0.25514	3404.00000	876.00000	1521.00000
920.48871	0.52769	0.29669	3265.72768	878.51909	1586.76031	918.64474	0.28703	3257.00000	860.00000	1548.00000
926.68306	0.48270	0.32908	3334.01990	918.74175	1713.48429	924.83511	0.31958	3324.00000	924.00000	1691.00000
932.87742	0.44496	0.35896	3389.36197	864.93184	1771.21501	931.02548	0.35040	3355.00000	875.00000	1744.00000
939.07177	0.41837	0.38162	3619.59224	884.95115	1928.48018	937.21585	0.37613	3537.00000	873.00000	1875.00000
945.26613	0.40498	0.39357	3856.44440	889.93616	2057.52048	943.40622	0.39076	3802.00000	900.00000	2034.00000
951.46048	0.40473	0.39379	4005.12223	859.91735	2098.42361	949.59659	0.39567	3955.00000	859.00000	2084.00000
957.65484	0.41811	0.38185	4215.51392	893.73656	2162.09179	955.78696	0.38553	4148.00000	885.00000	2143.00000
963.84919	0.42597	0.37500	4374.23623	878.43417	2189.44969	961.97733	0.37591	4344.00000	891.00000	2189.00000
970.04355	0.42625	0.37476	4523.41127	896.06510	2255.38768	968.16770	0.37493	4453.00000	871.00000	2214.00000
976.23790	0.42704	0.37408	4726.50938	925.04592	2347.10131	974.35807	0.37407	4693.00000	945.00000	2347.00000
982.43226	0.42420	0.37653	4835.26800	856.06452	2354.40253	980.54844	0.37538	4778.00000	854.00000	2327.00000
988.62661	0.41993	0.38025	5079.18703	905.14928	2492.24890	986.73881	0.37938	5013.00000	901.00000	2461.00000
994.82097	0.41667	0.38312	5288.13901	870.37131	2563.01783	992.92918	0.38201	5216.00000	881.00000	2537.00000
1001.01532	0.41260	0.38673	5547.24444	876.96250	2682.92015	999.11955	0.38584	5470.00000	867.00000	2643.00000
1007.20968	0.40764	0.39117	5821.73207	889.84005	2819.24395	1005.30992	0.38920	5729.00000	896.00000	2777.00000
1013.40403	0.39634	0.40147	6108.36987	875.33513	2976.09199	1011.50029	0.39779	6031.00000	870.00000	2923.00000
1019.59839	0.38279	0.41420	6349.51155	919.49996	3168.70587	1017.69066	0.41037	6269.00000	908.00000	3108.00000
1025.79274	0.37090	0.42570	6610.09178	908.88037	3335.80952	1023.88103	0.42226	6536.00000	921.00000	3292.00000
1031.98710	0.35954	0.43698	6863.27600	885.10537	3497.48029	1030.07140	0.43340	6776.00000	883.00000	3437.00000
1038.18145	0.34855	0.44817	7137.95533	879.30949	3684.25695	1036.26177	0.44489	7062.00000	892.00000	3637.00000
1044.37581	0.34000	0.45709	7415.45215	852.78191	3852.54083	1042.45214	0.45460	7313.00000	848.00000	3787.00000
1050.57016	0.33353	0.46394	7763.75520	889.74850	4078.88960	1048.64251	0.46195	7664.00000	884.00000	4016.00000
1056.76452	0.32824	0.46964	8043.98752	873.54577	4241.09150	1054.83288	0.46799	7958.00000	881.00000	4193.00000
1062.95887	0.32488	0.47328	8346.47029	875.55305	4411.35852	1061.02325	0.47249	8246.00000	868.00000	4354.00000
1069.15323	0.32411	0.47412	8651.05608	883.28349	4566.14909	1067.21362	0.47407	8564.00000	890.00000	4528.00000
1075.34758	0.32495	0.47320	8931.01237	859.29405	4678.85694	1073.40399	0.47367	8836.00000	860.00000	4638.00000
1081.54194	0.32772	0.47020	9243.78719	871.40916	4808.09617	1079.59436	0.47143	9149.00000	870.00000	4773.00000
1087.73629	0.33318	0.46432	9580.78777	901.76500	4931.59348	1085.78473	0.46649	9462.00000	883.00000	4885.00000
1093.93065	0.34034	0.45673	9940.76391	922.65990	5041.60766	1091.97510	0.45914	9841.00000	933.00000	5023.00000
1100.12500	0.34889	0.44783	10254.38783	869.25749	5072.07155	1098.16547	0.45100	10144.00000	878.00000	5057.00000
1106.31935	0.35901	0.43752	10641.04469	875.00467	5147.88995	1104.35584	0.44060	10519.00000	873.00000	5123.00000
1112.51371	0.36868	0.42787	11015.80766	872.41348	5212.46799	1110.54621	0.43111	10897.00000	874.00000	5195.00000
1118.70806	0.38113	0.41579	11401.60672	872.77123	5250.58103	1116.73658	0.41999	11276.00000	871.00000	5241.00000
1124.90242	0.39965	0.39843	11814.30888	885.70510	5240.07470	1122.92695	0.40485	11680.00000	881.00000	5253.00000
1131.09677	0.43016	0.37140	12236.17715	886.26842	5101.37225	1129.11732	0.38125	12103.00000	890.00000	5165.00000
1137.29113	0.47491	0.33503	12606.57558	854.95675	4792.43158	1135.30769	0.34735	12498.00000	867.00000	4907.00000
1143.48548	0.52785	0.29658	12995.31207	851.62722	4452.86698	1141.49806	0.30854	12851.00000	843.00000	4548.00000
1149.67984	0.57342	0.26704	13491.13514	894.93569	4258.91220	1147.68843	0.27484	13335.00000	884.00000	4306.00000
1155.87419	0.60006	0.25115	13953.07917	885.15852	4167.21142	1153.87880	0.25525	13805.00000	896.00000	4191.00000
1162.06855	0.61904	0.24042	14446.12872	862.12568	4127.83572	1160.06917	0.24387	14279.00000	862.00000	4134.00000
1168.26290	0.63796	0.23016	14959.02414	891.75197	4129.62150	1166.25954	0.23328	14800.00000	881.00000	4128.00000
1174.45726	0.65632	0.22064	15420.71473	898.79570	4102.87864	1172.44991	0.22387	15273.00000	903.00000	4120.00000
1180.65161	0.68137	0.20827	15876.41905	861.08105	3988.19968	1178.64028	0.21275	15728.00000	875.00000	4035.00000
1186.84597	0.70699	0.19634	16371.22020	852.06070	3899.18135	1184.83065	0.19941	16201.00000	846.00000	3908.00000
1193.04032	0.71480	0.19284	16894.18264	880.38932	3968.55712	1191.02102	0.19306	16730.00000	875.00000	3936.00000
1199.23468	0.71059	0.19472	17400.55626	883.09277	4099.38208	1197.21139	0.19398	17229.00000	882.00000	4053.00000
1205.42903	0.70853	0.19565	17922.85290	876.52702	4211.45573	1203.40176	0.19566	17758.00000	882.00000	4184.00000
1211.62339	0.70658	0.19653	18412.23826	867.41129	4315.41963	1209.59213	0.19575	18250.00000	866.00000	4269.00000
1217.81774	0.69268	0.20292	18946.64823	877.09601	4543.84320	1215.78250	0.20015	18763.00000	876.00000	4456.00000
1224.01210	0.67100	0.21331	19522.38589	879.59709	4856.20626	1221.97287	0.20978	19334.00000	877.00000	4749.00000
1230.20645	0.65112	0.22329	20046.82356	877.27220	5157.68451	1228.16324	0.22019	19884.00000	882.00000	5066.00000
1236.40081	0.63593	0.23124	20578.92550	894.33634	5446.27002	1234.35361	0.22887	20387.00000	878.00000	5343.00000
1242.59516	0.62447	0.23742	21116.97255	904.50586	5703.46098	1240.54398	0.23549	20962.00000	919.00000	5639.00000
1248.78952	0.61606	0.24207	21555.61107	852.78714	5864.32027	1246.73435	0.24079	21399.00000	858.00000	5804.00000
1254.98387	0.61079	0.24503	22112.97196	897.03001	6095.50863	1252.92472	0.24412	21917.00000	878.00000	6014.00000
1261.17823	0.60705	0.24715	22669.33634	902.45329	6282.03021	1259.11509	0.24658	22498.00000	915.00000	6237.00000
1267.37258	0.60617	0.24765	23144.86310	840.51764	6364.11774	1265.30546	0.24770	22985.00000	857.00000	6338.00000
1273.56694	0.60812	0.24654	23720.39347	860.92978	6496.62160	1271.49583	0.24703	23506.00000	841.00000	6440.00000
1279.76129	0.61246	0.24409	24372.77955	913.59084	6639.65693	1277.68620	0.24510	24166.00000	906.00000	6607.00000
1285.95565	0.61975	0.24002	24945.52650	893.87771	6666.81430	1283.87657	0.24154	24754.00000	903.00000	6664.00000
1292.15000	0.62981	0.23452	25532.41484	877.59600	6659.76462	1290.06694	0.23655	25332.00000	880.00000	6664.00000
1298.34435	0.64273	0.22765	26175.67024	884.75253	6642.26042	1296.25731	0.23009	25949.00000	881.00000	6649.00000
1304.53871	0.65870	0.21943	26805.92834	868.00311	6559.61893	1302.44769	0.22239	26610.00000	881.00000	6603.00000
1310.73306	0.67826	0.20977	27432.03993	867.23944	6439.71081	1308.63806	0.21315	27196.00000	853.00000	6468.00000
1316.92742	0.70051	0.19929	28161.82657	892.73544	6327.23894	1314.82843	0.20292	27925.00000	899.00000	6383.00000
1323.12177	0.72542	0.18818	28842.74169	862.95220	6128.26698	1321.01880	0.19202	28606.00000	864.00000	6191.00000
1329.31613	0.75195	0.17703	29519.54369	871.94640	5943.58682	1327.20917	0.18075	29300.00000	874.00000	6012.00000
1335.51048	0.77839	0.16657	30183.25265	863.66515	5747.46711	1333.39954	0.17007	29944.00000	862.00000	5808.00000
1341.70484	0.80421	0.15696	30926.51890	893.32929	5607.37526	1339.58991	0.16011	30673.00000	881.00000	5651.00000
1347.89919	0.82985	0.14796	31587.63481	894.88004	5436.38249	1345.78028	0.15107	31380.00000	904.00000	5508.00000
1354.09355	0.85908	0.13833	32227.78710	859.30420	5198.31737	1351.97065	0.14174	31988.00000	867.00000	5278.00000
1360.28790	0.89094	0.12855	32929.95072	867.11433	4988.88856	1358.16102	0.13180	32704.00000	861.00000	5058.00000
1366.48226	0.92436	0.11903	33569.06337	866.55753	4758.91451	1364.35139	0.12240	33341.00000	873.00000	4847.00000
1372.67661	0.96571	0.10822	34261.83351	843.87902	4460.17630	1370.54176	0.11213	34024.00000	848.00000	4568.00000
1378.87097	1.01852	0.09582	34838.67465	870.52277	4125.54967	1376.73213	0.10026	34668.00000	855.00000	4245.00000
1385.06532	1.08116	0.08296	35121.03064	877.10458	3717.87376	1382.92250	0.08733	35059.00000	888.00000	3872.00000
1391.25968	1.14628	0.07140	35289.43299	872.38486	3329.76922	1389.11287	0.07518	35214.00000	858.00000	3441.00000
1397.45403	1.20349	0.06259	35460.60298	899.47130	3062.79951	1395.30324	0.06524	35427.00000	906.00000	3158.00000
1403.64839	1.24379	0.05704	35666.10671	869.36576	2854.27075	1401.49361	0.05869	35545.00000	870.00000	2905.00000
1409.84274	1.27287	0.05335	36323.03255	883.09719	2773.77124	1407.68398	0.05451	36050.00000	883.00000	2800.00000
1416.03710	1.29353	0.05087	37284.68636	884.03189	2735.79953	1413.87435	0.05157	36926.00000	879.00000	2738.00000
1422.23145	1.30573	0.04946	38329.42739	892.53935	2744.23886	1420.06472	0.04990	37970.00000	895.00000	2745.00000
1428.42581	1.31520	0.04840	39434.74114	878.71439	2744.61515	1426.25509	0.04874	39022.00000	881.00000	2740.00000
1434.62016	1.32203	0.04764	40575.07439	880.06733	2771.13068	1432.44546	0.04786	40203.00000	880.00000	2762.00000
1440.81452	1.32588	0.04722	41493.68414	879.47622	2797.25262	1438.63583	0.04734	41184.00000	879.00000	2787.00000
1447.00887	1.32729	0.04707	42510.04768	905.41306	2863.59286	1444.82620	0.04709	42113.00000	891.00000	2832.00000
1453.20323	1.32771	0.04702	43543.72896	892.86717	2898.32931	1451.01657	0.04705	43229.00000	914.00000	2905.00000
1459.39758	1.32740	0.04705	44405.02794	864.61268	2913.40661	1457.20694	0.04700	44070.00000	855.00000	2886.00000
1465.59194	1.32450	0.04737	45481.34063	906.97918	3018.45995	1463.39731	0.04725	45094.00000	903.00000	2991.00000
1471.78629	1.32020	0.04784	46480.51435	890.87025	3071.94561	1469.58768	0.04764	46150.00000	894.00000	3050.00000
1477.98065	1.31384	0.04855	47320.91755	868.50781	3123.59523	1475.77805	0.04828	47029.00000	883.00000	3111.00000
1484.17500	1.30628	0.04940	48225.65661	857.63729	3197.60324	1481.96842	0.04907	47881.00000	849.00000	3157.00000
1490.36935	1.29779	0.05037	49092.30051	893.89890	3321.82918	1488.15879	0.05002	48824.00000	887.00000	3285.00000
1496.56371	1.28863	0.05145	49778.04514	887.35808	3402.69493	1494.34916	0.05104	49521.00000	891.00000	3373.00000
1502.75806	1.27773	0.05276	50469.48096	863.36996	3480.39585	1500.53953	0.05226	50241.00000	875.00000	3455.00000
1508.95242	1.26674	0.05411	51158.04064	897.54966	3617.00745	1506.72990	0.05364	50884.00000	867.00000	3550.00000
1515.14677	1.25548	0.05553	51878.91086	902.58342	3733.28657	1512.92027	0.05497	51650.00000	933.00000	3721.00000
1521.34113	1.24303	0.05714	52577.57434	850.45197	3806.35961	1519.11064	0.05658	52288.00000	838.00000	3749.00000
1527.53548	1.23123	0.05872	53324.26188	911.75147	3989.28325	1525.30101	0.05813	53098.00000	907.00000	3941.00000
1533.72984	1.21909	0.06038	53919.19306	885.74627	4088.05351	1531.49138	0.05978	53680.00000	890.00000	4046.00000
1539.92419	1.20724	0.06205	54593.00479	874.24673	4207.62448	1537.68175	0.06144	54367.00000	884.00000	4170.00000
1546.11855	1.19573	0.06372	55208.54831	866.87961	4329.51824	1543.87212	0.06313	54973.00000	860.00000	4276.00000
1552.31290	1.18461	0.06537	55811.51925	888.84465	4479.18974	1550.06249	0.06476	55614.00000	887.00000	4431.00000
1558.50726	1.17360	0.06705	56431.29012	888.46797	4612.72051	1556.25286	0.06645	56172.00000	885.00000	4559.00000
1564.70161	1.16373	0.06859	57011.94896	890.80855	4740.20594	1562.44323	0.06804	56858.00000	895.00000	4703.00000
1570.89597	1.15398	0.07015	57413.89650	869.93991	4836.49077	1568.63360	0.06956	57231.00000	876.00000	4796.00000
1577.09032	1.14456	0.07169	57979.03512	879.44141	4972.67562	1574.82397	0.07116	57786.00000	871.00000	4921.00000
1583.28468	1.13640	0.07305	58450.11400	894.72676	5098.97158	1581.01434	0.07255	58279.00000	894.00000	5057.00000
1589.47903	1.12860	0.07437	58825.25008	895.18773	5203.46713	1587.20471	0.07390	58712.00000	892.00000	5165.00000
1595.67339	1.12152	0.07559	59146.72764	885.70009	5289.88980	1593.39508	0.07515	59009.00000	896.00000	5263.00000
1601.86774	1.11494	0.07675	59574.82387	893.37146	5396.94366	1599.58545	0.07634	59419.00000	877.00000	5346.00000
1608.06210	1.10923	0.07776	59920.72690	909.46488	5498.27893	1605.77582	0.07740	59809.00000	920.00000	5478.00000
1614.25645	1.10388	0.07873	60220.95853	887.30010	5558.43155	1611.96619	0.07837	60102.00000	882.00000	5523.00000
1620.45081	1.09967	0.07949	60438.83040	897.12192	5630.25378	1618.15656	0.07926	60391.00000	905.00000	5620.00000
1626.64516	1.09678	0.08002	60579.30309	884.35356	5661.34529	1624.34693	0.07982	60502.00000	878.00000	5637.00000
1632.83952	1.09428	0.08049	60848.95373	899.57786	5724.62926	1630.53730	0.08035	60754.00000	903.00000	5712.00000
1639.03387	1.09259	0.08080	60928.35809	870.27700	5722.94253	1636.72767	0.08067	60938.00000	879.00000	5724.00000
1645.22823	1.09029	0.08123	60778.06969	873.98452	5739.89917	1642.91804	0.08106	60849.00000	868.00000	5730.00000
1651.42258	1.08789	0.08168	59777.88214	914.49031	5722.36668	1649.10841	0.08152	60357.00000	896.00000	5743.00000
1657.61694	1.08602	0.08203	57642.70006	920.63108	5573.58039	1655.29878	0.08192	58452.00000	931.00000	5643.00000
1663.81129	1.08483	0.08226	56689.89176	898.36344	5487.53524	1661.48915	0.08218	56762.00000	897.00000	5488.00000
1670.00565	1.08435	0.08235	55553.85124	917.06266	5416.39254	1667.67952	0.08234	56404.00000	914.00000	5483.00000
1676.20000	1.08543	0.08214	52318.47966	879.24303	5104.10061	1673.86989	0.08227	53497.00000	901.00000	5228.00000
0.00000	0.00000	0.00000	0.00000	0.00000	0.00000	1680.06026	0.08162	50136.00000	860.00000	4882.00000
0.00000	0.00000	0.00000	0.00000	0.00000	0.00000	1686.25063	0.08018	46019.00000	923.00000	4539.00000
0.00000	0.00000	0.00000	0.00000	0.00000	0.00000	1692.44100	0.08018	46019.00000	923.00000	4539.00000
