'File neuburger liquid milk-塑料_3_2016一月28_1111.xls
'Part ID neuburger liquid milk-塑料_3
'Scan Created 2016/1/28 11:11:21
'Instrument S1-00205
'Version 1.5.7
'Integration Time 10100 s
'Number of Scans 50
'Units Absorbance
'Thermistor 47.43
Wavelength	Absorbance	Normalized	100%	dark	Raw 1	Native Wvl	Native Norm	Native 100%	Native dark	Native 1
908.10000	0.61029	0.24531	3595.82598	881.87120	1546.40939	906.26400	0.23502	3684.00000	880.00000	1539.00000
914.29435	0.55389	0.27932	3338.07467	866.26472	1557.06436	912.45437	0.26938	3404.00000	876.00000	1557.00000
920.48871	0.50425	0.31315	3265.72768	878.51909	1626.05422	918.64474	0.30288	3257.00000	860.00000	1586.00000
926.68306	0.46014	0.34663	3334.01990	918.74175	1755.86405	924.83511	0.33708	3324.00000	924.00000	1733.00000
932.87742	0.42433	0.37642	3389.36197	864.93184	1815.29074	931.02548	0.36774	3355.00000	875.00000	1787.00000
939.07177	0.39732	0.40057	3619.59224	884.95115	1980.34794	937.21585	0.39452	3537.00000	873.00000	1924.00000
945.26613	0.38416	0.41290	3856.44440	889.93616	2114.80497	943.40622	0.41041	3802.00000	900.00000	2091.00000
951.46048	0.38549	0.41163	4005.12223	859.91735	2154.58308	949.59659	0.41376	3955.00000	859.00000	2140.00000
957.65484	0.39916	0.39888	4215.51392	893.73656	2218.60326	955.78696	0.40300	4148.00000	885.00000	2200.00000
963.84919	0.40734	0.39143	4374.23623	878.43417	2246.94859	961.97733	0.39212	4344.00000	891.00000	2245.00000
970.04355	0.40668	0.39203	4523.41127	896.06510	2318.00658	968.16770	0.39224	4453.00000	871.00000	2276.00000
976.23790	0.40785	0.39097	4726.50938	925.04592	2411.36265	974.35807	0.39088	4693.00000	945.00000	2410.00000
982.43226	0.40471	0.39381	4835.26800	856.06452	2423.11542	980.54844	0.39271	4778.00000	854.00000	2395.00000
988.62661	0.40076	0.39741	5079.18703	905.14928	2563.91947	986.73881	0.39640	5013.00000	901.00000	2531.00000
994.82097	0.39684	0.40101	5288.13901	870.37131	2642.05589	992.92918	0.39977	5216.00000	881.00000	2614.00000
1001.01532	0.39317	0.40442	5547.24444	876.96250	2765.53545	999.11955	0.40365	5470.00000	867.00000	2725.00000
1007.20968	0.38837	0.40891	5821.73207	889.84005	2906.76386	1005.30992	0.40679	5729.00000	896.00000	2862.00000
1013.40403	0.37698	0.41978	6108.36987	875.33513	3071.85309	1011.50029	0.41600	6031.00000	870.00000	3017.00000
1019.59839	0.36364	0.43288	6349.51155	919.49996	3270.15542	1017.69066	0.42884	6269.00000	908.00000	3207.00000
1025.79274	0.35159	0.44505	6610.09178	908.88037	3446.12973	1023.88103	0.44150	6536.00000	921.00000	3400.00000
1031.98710	0.34076	0.45629	6863.27600	885.10537	3612.87406	1030.07140	0.45274	6776.00000	883.00000	3551.00000
1038.18145	0.32986	0.46788	7137.95533	879.30949	3807.65393	1036.26177	0.46434	7062.00000	892.00000	3757.00000
1044.37581	0.32116	0.47736	7415.45215	852.78191	3985.48916	1042.45214	0.47486	7313.00000	848.00000	3918.00000
1050.57016	0.31511	0.48405	7763.75520	889.74850	4217.14489	1048.64251	0.48201	7664.00000	884.00000	4152.00000
1056.76452	0.30982	0.48999	8043.98752	873.54577	4386.95815	1054.83288	0.48834	7958.00000	881.00000	4337.00000
1062.95887	0.30676	0.49345	8346.47029	875.55305	4562.04982	1061.02325	0.49268	8246.00000	868.00000	4503.00000
1069.15323	0.30599	0.49433	8651.05608	883.28349	4723.09915	1067.21362	0.49427	8564.00000	890.00000	4683.00000
1075.34758	0.30683	0.49337	8931.01237	859.29405	4841.61410	1073.40399	0.49386	8836.00000	860.00000	4799.00000
1081.54194	0.30967	0.49015	9243.78719	871.40916	4975.14976	1079.59436	0.49148	9149.00000	870.00000	4939.00000
1087.73629	0.31523	0.48392	9580.78777	901.76500	5101.63977	1085.78473	0.48619	9462.00000	883.00000	5054.00000
1093.93065	0.32253	0.47585	9940.76391	922.65990	5214.01094	1091.97510	0.47845	9841.00000	933.00000	5195.00000
1100.12500	0.33108	0.46657	10254.38783	869.25749	5248.01119	1098.16547	0.46978	10144.00000	878.00000	5231.00000
1106.31935	0.34105	0.45599	10641.04469	875.00467	5328.24137	1104.35584	0.45926	10519.00000	873.00000	5303.00000
1112.51371	0.35074	0.44592	11015.80766	872.41348	5395.62641	1110.54621	0.44917	10897.00000	874.00000	5376.00000
1118.70806	0.36286	0.43365	11401.60672	872.77123	5438.55924	1116.73658	0.43806	11276.00000	871.00000	5429.00000
1124.90242	0.38145	0.41548	11814.30888	885.70510	5426.45831	1122.92695	0.42208	11680.00000	881.00000	5439.00000
1131.09677	0.41127	0.38791	12236.17715	886.26842	5288.72315	1129.11732	0.39802	12103.00000	890.00000	5353.00000
1137.29113	0.45546	0.35038	12606.57558	854.95675	4972.77577	1135.30769	0.36308	12498.00000	867.00000	5090.00000
1143.48548	0.50720	0.31103	12995.31207	851.62722	4628.32003	1141.49806	0.32320	12851.00000	843.00000	4724.00000
1149.67984	0.55098	0.28120	13491.13514	894.93569	4437.29336	1147.68843	0.28905	13335.00000	884.00000	4483.00000
1155.87419	0.57666	0.26506	13953.07917	885.15852	4348.85857	1153.87880	0.26927	13805.00000	896.00000	4372.00000
1162.06855	0.59489	0.25416	14446.12872	862.12568	4314.59486	1160.06917	0.25758	14279.00000	862.00000	4318.00000
1168.26290	0.61233	0.24416	14959.02414	891.75197	4326.42544	1166.25954	0.24722	14800.00000	881.00000	4322.00000
1174.45726	0.62939	0.23475	15420.71473	898.79570	4307.92067	1172.44991	0.23793	15273.00000	903.00000	4322.00000
1180.65161	0.65217	0.22275	15876.41905	861.08105	4205.66133	1178.64028	0.22709	15728.00000	875.00000	4248.00000
1186.84597	0.67522	0.21124	16371.22020	852.06070	4130.44130	1184.83065	0.21420	16201.00000	846.00000	4135.00000
1193.04032	0.68201	0.20796	16894.18264	880.38932	4210.74089	1191.02102	0.20814	16730.00000	875.00000	4175.00000
1199.23468	0.67829	0.20975	17400.55626	883.09277	4347.71116	1197.21139	0.20909	17229.00000	882.00000	4300.00000
1205.42903	0.67646	0.21064	17922.85290	876.52702	4467.09254	1203.40176	0.21059	17758.00000	882.00000	4436.00000
1211.62339	0.67423	0.21172	18412.23826	867.41129	4582.00716	1209.59213	0.21094	18250.00000	866.00000	4533.00000
1217.81774	0.66187	0.21784	18946.64823	877.09601	4813.42865	1215.78250	0.21518	18763.00000	876.00000	4725.00000
1224.01210	0.64249	0.22778	19522.38589	879.59709	5126.00004	1221.97287	0.22441	19334.00000	877.00000	5019.00000
1230.20645	0.62446	0.23743	20046.82356	877.27220	5428.76711	1228.16324	0.23440	19884.00000	882.00000	5336.00000
1236.40081	0.61046	0.24521	20578.92550	894.33634	5721.19999	1234.35361	0.24291	20387.00000	878.00000	5617.00000
1242.59516	0.60014	0.25111	21116.97255	904.50586	5980.06229	1240.54398	0.24926	20962.00000	919.00000	5915.00000
1248.78952	0.59236	0.25564	21555.61107	852.78714	6145.32374	1246.73435	0.25437	21399.00000	858.00000	6083.00000
1254.98387	0.58771	0.25840	22112.97196	897.03001	6379.22708	1252.92472	0.25762	21917.00000	878.00000	6298.00000
1261.17823	0.58466	0.26022	22669.33634	902.45329	6566.66860	1259.11509	0.25970	22498.00000	915.00000	6520.00000
1267.37258	0.58379	0.26074	23144.86310	840.51764	6656.10785	1265.30546	0.26080	22985.00000	857.00000	6628.00000
1273.56694	0.58600	0.25942	23720.39347	860.92978	6791.03486	1271.49583	0.26000	23506.00000	841.00000	6734.00000
1279.76129	0.59060	0.25668	24372.77955	913.59084	6935.17277	1277.68620	0.25778	24166.00000	906.00000	6902.00000
1285.95565	0.59790	0.25241	24945.52650	893.87771	6964.69288	1283.87657	0.25399	24754.00000	903.00000	6961.00000
1292.15000	0.60775	0.24674	25532.41484	877.59600	6961.07410	1290.06694	0.24881	25332.00000	880.00000	6964.00000
1298.34435	0.62047	0.23962	26175.67024	884.75253	6945.00748	1296.25731	0.24218	25949.00000	881.00000	6952.00000
1304.53871	0.63638	0.23100	26805.92834	868.00311	6859.81546	1302.44769	0.23409	26610.00000	881.00000	6904.00000
1310.73306	0.65560	0.22100	27432.03993	867.23944	6738.12421	1308.63806	0.22450	27196.00000	853.00000	6767.00000
1316.92742	0.67748	0.21015	28161.82657	892.73544	6623.28833	1314.82843	0.21391	27925.00000	899.00000	6680.00000
1323.12177	0.70190	0.19866	28842.74169	862.95220	6421.26325	1321.01880	0.20262	28606.00000	864.00000	6485.00000
1329.31613	0.72781	0.18715	29519.54369	871.94640	6233.43718	1327.20917	0.19099	29300.00000	874.00000	6303.00000
1335.51048	0.75355	0.17638	30183.25265	863.66515	6035.02304	1333.39954	0.17997	29944.00000	862.00000	6096.00000
1341.70484	0.77859	0.16650	30926.51890	893.32929	5893.82862	1339.58991	0.16974	30673.00000	881.00000	5938.00000
1347.89919	0.80325	0.15731	31587.63481	894.88004	5723.24559	1345.78028	0.16045	31380.00000	904.00000	5794.00000
1354.09355	0.83036	0.14779	32227.78710	859.30420	5495.01701	1351.97065	0.15112	31988.00000	867.00000	5570.00000
1360.28790	0.85977	0.13811	32929.95072	867.11433	5295.51676	1358.16102	0.14138	32704.00000	861.00000	5363.00000
1366.48226	0.89131	0.12844	33569.06337	866.55753	5066.70620	1364.35139	0.13185	33341.00000	873.00000	5154.00000
1372.67661	0.93022	0.11743	34261.83351	843.87902	4768.14025	1370.54176	0.12144	34024.00000	848.00000	4877.00000
1378.87097	0.98061	0.10457	34838.67465	870.52277	4422.50582	1376.73213	0.10919	34668.00000	855.00000	4547.00000
1385.06532	1.04026	0.09115	35121.03064	877.10458	3998.38628	1382.92250	0.09570	35059.00000	888.00000	4158.00000
1391.25968	1.10201	0.07907	35289.43299	872.38486	3593.48911	1389.11287	0.08304	35214.00000	858.00000	3711.00000
1397.45403	1.15612	0.06980	35460.60298	899.47130	3312.09322	1395.30324	0.07256	35427.00000	906.00000	3411.00000
1403.64839	1.19410	0.06396	35666.10671	869.36576	3094.88456	1401.49361	0.06572	35545.00000	870.00000	3149.00000
1409.84274	1.22172	0.06002	36323.03255	883.09719	3010.10536	1407.68398	0.06122	36050.00000	883.00000	3036.00000
1416.03710	1.24024	0.05751	37284.68636	884.03189	2977.54272	1413.87435	0.05823	36926.00000	879.00000	2978.00000
1422.23145	1.25175	0.05601	38329.42739	892.53935	2989.31672	1420.06472	0.05648	37970.00000	895.00000	2989.00000
1428.42581	1.26049	0.05489	39434.74114	878.71439	2995.13483	1426.25509	0.05524	39022.00000	881.00000	2988.00000
1434.62016	1.26634	0.05416	40575.07439	880.06733	3029.86047	1432.44546	0.05437	40203.00000	880.00000	3018.00000
1440.81452	1.26968	0.05374	41493.68414	879.47622	3062.20712	1438.63583	0.05386	41184.00000	879.00000	3050.00000
1447.00887	1.27130	0.05354	42510.04768	905.41306	3133.05726	1444.82620	0.05359	42113.00000	891.00000	3100.00000
1453.20323	1.27173	0.05349	43543.72896	892.86717	3174.22877	1451.01657	0.05350	43229.00000	914.00000	3178.00000
1459.39758	1.27129	0.05354	44405.02794	864.61268	3195.93441	1457.20694	0.05350	44070.00000	855.00000	3167.00000
1465.59194	1.26904	0.05382	45481.34063	906.97918	3306.04043	1463.39731	0.05370	45094.00000	903.00000	3276.00000
1471.78629	1.26507	0.05432	46480.51435	890.87025	3367.10091	1469.58768	0.05411	46150.00000	894.00000	3343.00000
1477.98065	1.25922	0.05505	47320.91755	868.50781	3425.82363	1475.77805	0.05476	47029.00000	883.00000	3410.00000
1484.17500	1.25188	0.05599	48225.65661	857.63729	3509.86415	1481.96842	0.05564	47881.00000	849.00000	3466.00000
1490.36935	1.24414	0.05700	49092.30051	893.89890	3641.08616	1488.15879	0.05664	48824.00000	887.00000	3602.00000
1496.56371	1.23547	0.05815	49778.04514	887.35808	3730.27654	1494.34916	0.05770	49521.00000	891.00000	3697.00000
1502.75806	1.22519	0.05954	50469.48096	863.36996	3816.93437	1500.53953	0.05903	50241.00000	875.00000	3789.00000
1508.95242	1.21491	0.06097	51158.04064	897.54966	3961.71616	1506.72990	0.06046	50884.00000	867.00000	3891.00000
1515.14677	1.20413	0.06250	51878.91086	902.58342	4088.52477	1512.92027	0.06191	51650.00000	933.00000	4073.00000
1521.34113	1.19274	0.06416	52577.57434	850.45197	4169.21939	1519.11064	0.06358	52288.00000	838.00000	4109.00000
1527.53548	1.18152	0.06584	53324.26188	911.75147	4362.46771	1525.30101	0.06520	53098.00000	907.00000	4310.00000
1533.72984	1.16977	0.06764	53919.19306	885.74627	4473.18256	1531.49138	0.06700	53680.00000	890.00000	4427.00000
1539.92419	1.15850	0.06942	54593.00479	874.24673	4603.48116	1537.68175	0.06877	54367.00000	884.00000	4562.00000
1546.11855	1.14771	0.07117	55208.54831	866.87961	4734.34052	1543.87212	0.07056	54973.00000	860.00000	4678.00000
1552.31290	1.13722	0.07291	55811.51925	888.84465	4893.13753	1550.06249	0.07225	55614.00000	887.00000	4841.00000
1558.50726	1.12650	0.07473	56431.29012	888.46797	5039.31604	1556.25286	0.07409	56172.00000	885.00000	4981.00000
1564.70161	1.11695	0.07639	57011.94896	890.80855	5177.99910	1562.44323	0.07580	56858.00000	895.00000	5137.00000
1570.89597	1.10755	0.07806	57413.89650	869.93991	5284.09785	1568.63360	0.07744	57231.00000	876.00000	5240.00000
1577.09032	1.09852	0.07970	57979.03512	879.44141	5430.43117	1574.82397	0.07914	57786.00000	871.00000	5375.00000
1583.28468	1.09039	0.08121	58450.11400	894.72676	5568.81140	1581.01434	0.08065	58279.00000	894.00000	5522.00000
1589.47903	1.08279	0.08264	58825.25008	895.18773	5682.71284	1587.20471	0.08215	58712.00000	892.00000	5642.00000
1595.67339	1.07595	0.08396	59146.72764	885.70009	5777.12170	1593.39508	0.08346	59009.00000	896.00000	5746.00000
1601.86774	1.06921	0.08527	59574.82387	893.37146	5897.09807	1599.58545	0.08481	59419.00000	877.00000	5842.00000
1608.06210	1.06351	0.08639	59920.72690	909.46488	6007.74295	1605.77582	0.08599	59809.00000	920.00000	5984.00000
1614.25645	1.05824	0.08745	60220.95853	887.30010	6076.01091	1611.96619	0.08707	60102.00000	882.00000	6038.00000
1620.45081	1.05396	0.08832	60438.83040	897.12192	6155.66325	1618.15656	0.08804	60391.00000	905.00000	6142.00000
1626.64516	1.05062	0.08900	60579.30309	884.35356	6197.11508	1624.34693	0.08874	60502.00000	878.00000	6169.00000
1632.83952	1.04774	0.08959	60848.95373	899.57786	6270.41632	1630.53730	0.08941	60754.00000	903.00000	6254.00000
1639.03387	1.04554	0.09004	60928.35809	870.27700	6278.18305	1636.72767	0.08986	60938.00000	879.00000	6276.00000
1645.22823	1.04300	0.09057	60778.06969	873.98452	6299.68784	1642.91804	0.09038	60849.00000	868.00000	6289.00000
1651.42258	1.04023	0.09115	59777.88214	914.49031	6279.97974	1649.10841	0.09092	60357.00000	896.00000	6302.00000
1657.61694	1.03740	0.09175	57642.70006	920.63108	6124.83959	1655.29878	0.09155	58452.00000	931.00000	6197.00000
1663.81129	1.03586	0.09207	56689.89176	898.36344	6035.37252	1661.48915	0.09199	56762.00000	897.00000	6036.00000
1670.00565	1.03503	0.09225	55553.85124	917.06266	5957.40777	1667.67952	0.09218	56404.00000	914.00000	6029.00000
1676.20000	1.03512	0.09223	52318.47966	879.24303	5623.18088	1673.86989	0.09231	53497.00000	901.00000	5756.00000
0.00000	0.00000	0.00000	0.00000	0.00000	0.00000	1680.06026	0.09177	50136.00000	860.00000	5382.00000
0.00000	0.00000	0.00000	0.00000	0.00000	0.00000	1686.25063	0.09045	46019.00000	923.00000	5002.00000
0.00000	0.00000	0.00000	0.00000	0.00000	0.00000	1692.44100	0.09045	46019.00000	923.00000	5002.00000
