'File neuburger liquid milk-塑料_2_2016一月28_1111.xls
'Part ID neuburger liquid milk-塑料_2
'Scan Created 2016/1/28 11:11:17
'Instrument S1-00205
'Version 1.5.7
'Integration Time 10100 s
'Number of Scans 50
'Units Absorbance
'Thermistor 47.43
Wavelength	Absorbance	Normalized	100%	dark	Raw 1	Native Wvl	Native Norm	Native 100%	Native dark	Native 1
908.10000	0.61142	0.24467	3595.82598	881.87120	1544.80826	906.26400	0.23502	3684.00000	880.00000	1539.00000
914.29435	0.55496	0.27864	3338.07467	866.26472	1555.29777	912.45437	0.26820	3404.00000	876.00000	1554.00000
920.48871	0.50298	0.31407	3265.72768	878.51909	1628.26044	918.64474	0.30371	3257.00000	860.00000	1588.00000
926.68306	0.45956	0.34709	3334.01990	918.74175	1756.99177	924.83511	0.33750	3324.00000	924.00000	1734.00000
932.87742	0.42353	0.37711	3389.36197	864.93184	1817.00144	931.02548	0.36855	3355.00000	875.00000	1789.00000
939.07177	0.39668	0.40116	3619.59224	884.95115	1982.00232	937.21585	0.39489	3537.00000	873.00000	1925.00000
945.26613	0.38260	0.41438	3856.44440	889.93616	2119.16686	943.40622	0.41178	3802.00000	900.00000	2095.00000
951.46048	0.38420	0.41285	4005.12223	859.91735	2158.45197	949.59659	0.41505	3955.00000	859.00000	2144.00000
957.65484	0.39779	0.40013	4215.51392	893.73656	2222.76588	955.78696	0.40423	4148.00000	885.00000	2204.00000
963.84919	0.40625	0.39241	4374.23623	878.43417	2250.37294	961.97733	0.39328	4344.00000	891.00000	2249.00000
970.04355	0.40610	0.39255	4523.41127	896.06510	2319.89402	968.16770	0.39280	4453.00000	871.00000	2278.00000
976.23790	0.40736	0.39142	4726.50938	925.04592	2413.03840	974.35807	0.39141	4693.00000	945.00000	2412.00000
982.43226	0.40435	0.39414	4835.26800	856.06452	2424.45040	980.54844	0.39297	4778.00000	854.00000	2396.00000
988.62661	0.39981	0.39828	5079.18703	905.14928	2567.53946	986.73881	0.39713	5013.00000	901.00000	2534.00000
994.82097	0.39595	0.40184	5288.13901	870.37131	2645.67607	992.92918	0.40069	5216.00000	881.00000	2618.00000
1001.01532	0.39238	0.40516	5547.24444	876.96250	2769.01747	999.11955	0.40430	5470.00000	867.00000	2728.00000
1007.20968	0.38728	0.40994	5821.73207	889.84005	2911.83560	1005.30992	0.40782	5729.00000	896.00000	2867.00000
1013.40403	0.37587	0.42085	6108.36987	875.33513	3077.47620	1011.50029	0.41697	6031.00000	870.00000	3022.00000
1019.59839	0.36239	0.43412	6349.51155	919.49996	3276.85758	1017.69066	0.43014	6269.00000	908.00000	3214.00000
1025.79274	0.35042	0.44625	6610.09178	908.88037	3453.00281	1023.88103	0.44256	6536.00000	921.00000	3406.00000
1031.98710	0.33905	0.45809	6863.27600	885.10537	3623.65603	1030.07140	0.45444	6776.00000	883.00000	3561.00000
1038.18145	0.32826	0.46962	7137.95533	879.30949	3818.48936	1036.26177	0.46613	7062.00000	892.00000	3768.00000
1044.37581	0.31955	0.47912	7415.45215	852.78191	3997.09721	1042.45214	0.47657	7313.00000	848.00000	3929.00000
1050.57016	0.31341	0.48595	7763.75520	889.74850	4230.20125	1048.64251	0.48392	7664.00000	884.00000	4165.00000
1056.76452	0.30814	0.49188	8043.98752	873.54577	4400.53204	1054.83288	0.49018	7958.00000	881.00000	4350.00000
1062.95887	0.30500	0.49545	8346.47029	875.55305	4577.00208	1061.02325	0.49471	8246.00000	868.00000	4518.00000
1069.15323	0.30443	0.49610	8651.05608	883.28349	4736.89492	1067.21362	0.49609	8564.00000	890.00000	4697.00000
1075.34758	0.30528	0.49513	8931.01237	859.29405	4855.83438	1073.40399	0.49561	8836.00000	860.00000	4813.00000
1081.54194	0.30803	0.49201	9243.78719	871.40916	4990.71194	1079.59436	0.49330	9149.00000	870.00000	4954.00000
1087.73629	0.31342	0.48594	9580.78777	901.76500	5119.23748	1085.78473	0.48817	9462.00000	883.00000	5071.00000
1093.93065	0.32076	0.47780	9940.76391	922.65990	5231.53183	1091.97510	0.48047	9841.00000	933.00000	5213.00000
1100.12500	0.32954	0.46824	10254.38783	869.25749	5263.64025	1098.16547	0.47151	10144.00000	878.00000	5247.00000
1106.31935	0.33943	0.45769	10641.04469	875.00467	5344.87711	1104.35584	0.46092	10519.00000	873.00000	5319.00000
1112.51371	0.34921	0.44749	11015.80766	872.41348	5411.51378	1110.54621	0.45086	10897.00000	874.00000	5393.00000
1118.70806	0.36165	0.43486	11401.60672	872.77123	5451.31834	1116.73658	0.43931	11276.00000	871.00000	5442.00000
1124.90242	0.38006	0.41681	11814.30888	885.70510	5440.99949	1122.92695	0.42337	11680.00000	881.00000	5453.00000
1131.09677	0.41003	0.38902	12236.17715	886.26842	5301.31747	1129.11732	0.39927	12103.00000	890.00000	5367.00000
1137.29113	0.45462	0.35106	12606.57558	854.95675	4980.78653	1135.30769	0.36386	12498.00000	867.00000	5099.00000
1143.48548	0.50645	0.31156	12995.31207	851.62722	4634.78155	1141.49806	0.32378	12851.00000	843.00000	4731.00000
1149.67984	0.55045	0.28154	13491.13514	894.93569	4441.58398	1147.68843	0.28945	13335.00000	884.00000	4488.00000
1155.87419	0.57634	0.26525	13953.07917	885.15852	4351.40797	1153.87880	0.26950	13805.00000	896.00000	4375.00000
1162.06855	0.59465	0.25430	14446.12872	862.12568	4316.51863	1160.06917	0.25773	14279.00000	862.00000	4320.00000
1168.26290	0.61207	0.24430	14959.02414	891.75197	4328.49214	1166.25954	0.24736	14800.00000	881.00000	4324.00000
1174.45726	0.62916	0.23488	15420.71473	898.79570	4309.69567	1172.44991	0.23807	15273.00000	903.00000	4324.00000
1180.65161	0.65210	0.22279	15876.41905	861.08105	4206.23953	1178.64028	0.22716	15728.00000	875.00000	4249.00000
1186.84597	0.67522	0.21124	16371.22020	852.06070	4130.43898	1184.83065	0.21420	16201.00000	846.00000	4135.00000
1193.04032	0.68205	0.20795	16894.18264	880.38932	4210.44428	1191.02102	0.20814	16730.00000	875.00000	4175.00000
1199.23468	0.67842	0.20969	17400.55626	883.09277	4346.67146	1197.21139	0.20903	17229.00000	882.00000	4299.00000
1205.42903	0.67661	0.21057	17922.85290	876.52702	4465.85322	1203.40176	0.21054	17758.00000	882.00000	4435.00000
1211.62339	0.67423	0.21173	18412.23826	867.41129	4582.11199	1209.59213	0.21088	18250.00000	866.00000	4532.00000
1217.81774	0.66170	0.21792	18946.64823	877.09601	4814.88690	1215.78250	0.21530	18763.00000	876.00000	4727.00000
1224.01210	0.64241	0.22782	19522.38589	879.59709	5126.74660	1221.97287	0.22441	19334.00000	877.00000	5019.00000
1230.20645	0.62441	0.23746	20046.82356	877.27220	5429.22934	1228.16324	0.23450	19884.00000	882.00000	5338.00000
1236.40081	0.61067	0.24509	20578.92550	894.33634	5718.92222	1234.35361	0.24276	20387.00000	878.00000	5614.00000
1242.59516	0.60004	0.25116	21116.97255	904.50586	5981.13242	1240.54398	0.24931	20962.00000	919.00000	5916.00000
1248.78952	0.59250	0.25556	21555.61107	852.78714	6143.62020	1246.73435	0.25432	21399.00000	858.00000	6082.00000
1254.98387	0.58767	0.25842	22112.97196	897.03001	6379.71796	1252.92472	0.25757	21917.00000	878.00000	6297.00000
1261.17823	0.58445	0.26034	22669.33634	902.45329	6569.32224	1259.11509	0.25983	22498.00000	915.00000	6523.00000
1267.37258	0.58388	0.26069	23144.86310	840.51764	6654.96080	1265.30546	0.26080	22985.00000	857.00000	6628.00000
1273.56694	0.58612	0.25934	23720.39347	860.92978	6789.40965	1271.49583	0.25992	23506.00000	841.00000	6732.00000
1279.76129	0.59054	0.25672	24372.77955	913.59084	6935.97971	1277.68620	0.25778	24166.00000	906.00000	6902.00000
1285.95565	0.59790	0.25241	24945.52650	893.87771	6964.61565	1283.87657	0.25404	24754.00000	903.00000	6962.00000
1292.15000	0.60803	0.24658	25532.41484	877.59600	6957.12393	1290.06694	0.24869	25332.00000	880.00000	6961.00000
1298.34435	0.62087	0.23940	26175.67024	884.75253	6939.43306	1296.25731	0.24198	25949.00000	881.00000	6947.00000
1304.53871	0.63695	0.23070	26805.92834	868.00311	6852.01751	1302.44769	0.23382	26610.00000	881.00000	6897.00000
1310.73306	0.65628	0.22066	27432.03993	867.23944	6728.87637	1308.63806	0.22416	27196.00000	853.00000	6758.00000
1316.92742	0.67831	0.20974	28161.82657	892.73544	6612.21935	1314.82843	0.21354	27925.00000	899.00000	6670.00000
1323.12177	0.70311	0.19810	28842.74169	862.95220	6405.78081	1321.01880	0.20211	28606.00000	864.00000	6471.00000
1329.31613	0.72936	0.18648	29519.54369	871.94640	6214.32235	1327.20917	0.19035	29300.00000	874.00000	6285.00000
1335.51048	0.75539	0.17563	30183.25265	863.66515	6013.12626	1333.39954	0.17925	29944.00000	862.00000	6075.00000
1341.70484	0.78080	0.16565	30926.51890	893.32929	5868.39180	1339.58991	0.16894	30673.00000	881.00000	5914.00000
1347.89919	0.80562	0.15645	31587.63481	894.88004	5696.94303	1345.78028	0.15957	31380.00000	904.00000	5767.00000
1354.09355	0.83281	0.14696	32227.78710	859.30420	5468.95319	1351.97065	0.15032	31988.00000	867.00000	5545.00000
1360.28790	0.86265	0.13720	32929.95072	867.11433	5266.30181	1358.16102	0.14047	32704.00000	861.00000	5334.00000
1366.48226	0.89443	0.12752	33569.06337	866.55753	5036.59911	1364.35139	0.13096	33341.00000	873.00000	5125.00000
1372.67661	0.93395	0.11643	34261.83351	843.87902	4734.55658	1370.54176	0.12045	34024.00000	848.00000	4844.00000
1378.87097	0.98459	0.10361	34838.67465	870.52277	4390.07595	1376.73213	0.10821	34668.00000	855.00000	4514.00000
1385.06532	1.04515	0.09013	35121.03064	877.10458	3963.43793	1382.92250	0.09473	35059.00000	888.00000	4125.00000
1391.25968	1.10839	0.07791	35289.43299	872.38486	3553.82145	1389.11287	0.08191	35214.00000	858.00000	3672.00000
1397.45403	1.16314	0.06868	35460.60298	899.47130	3273.38907	1395.30324	0.07143	35427.00000	906.00000	3372.00000
1403.64839	1.20190	0.06282	35666.10671	869.36576	3055.28385	1401.49361	0.06460	35545.00000	870.00000	3110.00000
1409.84274	1.23030	0.05884	36323.03255	883.09719	2968.47983	1407.68398	0.06006	36050.00000	883.00000	2995.00000
1416.03710	1.24950	0.05630	37284.68636	884.03189	2933.37484	1413.87435	0.05704	36926.00000	879.00000	2935.00000
1422.23145	1.26194	0.05471	38329.42739	892.53935	2940.67617	1420.06472	0.05521	37970.00000	895.00000	2942.00000
1428.42581	1.27120	0.05356	39434.74114	878.71439	2943.59499	1426.25509	0.05391	39022.00000	881.00000	2937.00000
1434.62016	1.27707	0.05284	40575.07439	880.06733	2977.37970	1432.44546	0.05305	40203.00000	880.00000	2966.00000
1440.81452	1.28027	0.05245	41493.68414	879.47622	3009.60700	1438.63583	0.05255	41184.00000	879.00000	2997.00000
1447.00887	1.28218	0.05222	42510.04768	905.41306	3077.90153	1444.82620	0.05230	42113.00000	891.00000	3047.00000
1453.20323	1.28355	0.05205	43543.72896	892.86717	3113.00451	1451.01657	0.05209	43229.00000	914.00000	3118.00000
1459.39758	1.28268	0.05216	44405.02794	864.61268	3135.58522	1457.20694	0.05209	44070.00000	855.00000	3106.00000
1465.59194	1.28022	0.05245	45481.34063	906.97918	3245.10135	1463.39731	0.05234	45094.00000	903.00000	3216.00000
1471.78629	1.27676	0.05287	46480.51435	890.87025	3301.34912	1469.58768	0.05270	46150.00000	894.00000	3279.00000
1477.98065	1.27101	0.05358	47320.91755	868.50781	3357.38223	1475.77805	0.05329	47029.00000	883.00000	3342.00000
1484.17500	1.26348	0.05452	48225.65661	857.63729	3439.95954	1481.96842	0.05418	47881.00000	849.00000	3397.00000
1490.36935	1.25581	0.05549	49092.30051	893.89890	3568.24125	1488.15879	0.05513	48824.00000	887.00000	3530.00000
1496.56371	1.24704	0.05662	49778.04514	887.35808	3655.54195	1494.34916	0.05618	49521.00000	891.00000	3623.00000
1502.75806	1.23658	0.05800	50469.48096	863.36996	3740.47114	1500.53953	0.05749	50241.00000	875.00000	3713.00000
1508.95242	1.22602	0.05943	51158.04064	897.54966	3884.37204	1506.72990	0.05892	50884.00000	867.00000	3814.00000
1515.14677	1.21530	0.06091	51878.91086	902.58342	4007.65095	1512.92027	0.06035	51650.00000	933.00000	3994.00000
1521.34113	1.20395	0.06252	52577.57434	850.45197	4084.66755	1519.11064	0.06194	52288.00000	838.00000	4025.00000
1527.53548	1.19251	0.06419	53324.26188	911.75147	4276.29468	1525.30101	0.06357	53098.00000	907.00000	4225.00000
1533.72984	1.18082	0.06594	53919.19306	885.74627	4383.02617	1531.49138	0.06532	53680.00000	890.00000	4338.00000
1539.92419	1.16952	0.06768	54593.00479	874.24673	4510.03110	1537.68175	0.06705	54367.00000	884.00000	4470.00000
1546.11855	1.15843	0.06943	55208.54831	866.87961	4640.01800	1543.87212	0.06880	54973.00000	860.00000	4583.00000
1552.31290	1.14753	0.07120	55811.51925	888.84465	4799.23866	1550.06249	0.07055	55614.00000	887.00000	4748.00000
1558.50726	1.13690	0.07296	56431.29012	888.46797	4941.05485	1556.25286	0.07233	56172.00000	885.00000	4884.00000
1564.70161	1.12707	0.07463	57011.94896	890.80855	5079.18633	1562.44323	0.07403	56858.00000	895.00000	5038.00000
1570.89597	1.11751	0.07629	57413.89650	869.93991	5183.97625	1568.63360	0.07568	57231.00000	876.00000	5141.00000
1577.09032	1.10835	0.07792	57979.03512	879.44141	5328.58127	1574.82397	0.07734	57786.00000	871.00000	5273.00000
1583.28468	1.09992	0.07945	58450.11400	894.72676	5467.40196	1581.01434	0.07889	58279.00000	894.00000	5421.00000
1589.47903	1.09230	0.08085	58825.25008	895.18773	5579.03571	1587.20471	0.08037	58712.00000	892.00000	5539.00000
1595.67339	1.08549	0.08213	59146.72764	885.70009	5670.78014	1593.39508	0.08165	59009.00000	896.00000	5641.00000
1601.86774	1.07864	0.08344	59574.82387	893.37146	5789.51609	1599.58545	0.08297	59419.00000	877.00000	5734.00000
1608.06210	1.07261	0.08460	59920.72690	909.46488	5901.99695	1605.77582	0.08419	59809.00000	920.00000	5878.00000
1614.25645	1.06720	0.08566	60220.95853	887.30010	5970.12460	1611.96619	0.08528	60102.00000	882.00000	5932.00000
1620.45081	1.06265	0.08657	60438.83040	897.12192	6051.42565	1618.15656	0.08627	60391.00000	905.00000	6037.00000
1626.64516	1.05930	0.08724	60579.30309	884.35356	6091.96889	1624.34693	0.08700	60502.00000	878.00000	6065.00000
1632.83952	1.05645	0.08781	60848.95373	899.57786	6163.81799	1630.53730	0.08762	60754.00000	903.00000	6147.00000
1639.03387	1.05404	0.08830	60928.35809	870.27700	6173.32372	1636.72767	0.08811	60938.00000	879.00000	6171.00000
1645.22823	1.05144	0.08883	60778.06969	873.98452	6195.38479	1642.91804	0.08863	60849.00000	868.00000	6184.00000
1651.42258	1.04844	0.08945	59777.88214	914.49031	6179.51015	1649.10841	0.08920	60357.00000	896.00000	6200.00000
1657.61694	1.04577	0.09000	57642.70006	920.63108	6025.53822	1655.29878	0.08983	58452.00000	931.00000	6098.00000
1663.81129	1.04434	0.09029	56689.89176	898.36344	5936.03117	1661.48915	0.09020	56762.00000	897.00000	5936.00000
1670.00565	1.04334	0.09050	55553.85124	917.06266	5861.85898	1667.67952	0.09043	56404.00000	914.00000	5932.00000
1676.20000	1.04354	0.09046	52318.47966	879.24303	5532.08688	1673.86989	0.09054	53497.00000	901.00000	5663.00000
0.00000	0.00000	0.00000	0.00000	0.00000	0.00000	1680.06026	0.09000	50136.00000	860.00000	5295.00000
0.00000	0.00000	0.00000	0.00000	0.00000	0.00000	1686.25063	0.08868	46019.00000	923.00000	4922.00000
0.00000	0.00000	0.00000	0.00000	0.00000	0.00000	1692.44100	0.08868	46019.00000	923.00000	4922.00000
