'File neuburger liquid milk-塑料_5_2016一月28_1111.xls
'Part ID neuburger liquid milk-塑料_5
'Scan Created 2016/1/28 11:11:32
'Instrument S1-00205
'Version 1.5.7
'Integration Time 10100 s
'Number of Scans 50
'Units Absorbance
'Thermistor 47.43
Wavelength	Absorbance	Normalized	100%	dark	Raw 1	Native Wvl	Native Norm	Native 100%	Native dark	Native 1
908.10000	0.61065	0.24511	3595.82598	881.87120	1545.97513	906.26400	0.23538	3684.00000	880.00000	1540.00000
914.29435	0.55465	0.27883	3338.07467	866.26472	1555.79602	912.45437	0.26859	3404.00000	876.00000	1555.00000
920.48871	0.50379	0.31348	3265.72768	878.51909	1626.86490	918.64474	0.30330	3257.00000	860.00000	1587.00000
926.68306	0.46078	0.34612	3334.01990	918.74175	1754.63505	924.83511	0.33667	3324.00000	924.00000	1732.00000
932.87742	0.42488	0.37594	3389.36197	864.93184	1814.06030	931.02548	0.36734	3355.00000	875.00000	1786.00000
939.07177	0.39809	0.39986	3619.59224	884.95115	1978.41355	937.21585	0.39377	3537.00000	873.00000	1922.00000
945.26613	0.38435	0.41272	3856.44440	889.93616	2114.26004	943.40622	0.41006	3802.00000	900.00000	2090.00000
951.46048	0.38554	0.41158	4005.12223	859.91735	2154.44467	949.59659	0.41376	3955.00000	859.00000	2140.00000
957.65484	0.39961	0.39846	4215.51392	893.73656	2217.21079	955.78696	0.40270	4148.00000	885.00000	2199.00000
963.84919	0.40801	0.39083	4374.23623	878.43417	2244.84674	961.97733	0.39154	4344.00000	891.00000	2243.00000
970.04355	0.40791	0.39092	4523.41127	896.06510	2313.93510	968.16770	0.39140	4453.00000	871.00000	2273.00000
976.23790	0.40949	0.38950	4726.50938	925.04592	2405.78770	974.35807	0.38927	4693.00000	945.00000	2404.00000
982.43226	0.40531	0.39327	4835.26800	856.06452	2420.95453	980.54844	0.39195	4778.00000	854.00000	2392.00000
988.62661	0.40089	0.39729	5079.18703	905.14928	2563.42418	986.73881	0.39616	5013.00000	901.00000	2530.00000
994.82097	0.39694	0.40092	5288.13901	870.37131	2641.63262	992.92918	0.39977	5216.00000	881.00000	2614.00000
1001.01532	0.39322	0.40437	5547.24444	876.96250	2765.33597	999.11955	0.40343	5470.00000	867.00000	2724.00000
1007.20968	0.38794	0.40931	5821.73207	889.84005	2908.71860	1005.30992	0.40720	5729.00000	896.00000	2864.00000
1013.40403	0.37674	0.42001	6108.36987	875.33513	3073.11691	1011.50029	0.41620	6031.00000	870.00000	3018.00000
1019.59839	0.36336	0.43315	6349.51155	919.49996	3271.59572	1017.69066	0.42921	6269.00000	908.00000	3209.00000
1025.79274	0.35115	0.44551	6610.09178	908.88037	3448.80178	1023.88103	0.44167	6536.00000	921.00000	3401.00000
1031.98710	0.33964	0.45747	6863.27600	885.10537	3619.90962	1030.07140	0.45393	6776.00000	883.00000	3558.00000
1038.18145	0.32947	0.46831	7137.95533	879.30949	3810.32871	1036.26177	0.46499	7062.00000	892.00000	3761.00000
1044.37581	0.32074	0.47782	7415.45215	852.78191	3988.54463	1042.45214	0.47517	7313.00000	848.00000	3920.00000
1050.57016	0.31427	0.48499	7763.75520	889.74850	4223.55326	1048.64251	0.48289	7664.00000	884.00000	4158.00000
1056.76452	0.30908	0.49082	8043.98752	873.54577	4392.96046	1054.83288	0.48919	7958.00000	881.00000	4343.00000
1062.95887	0.30610	0.49419	8346.47029	875.55305	4567.60057	1061.02325	0.49349	8246.00000	868.00000	4509.00000
1069.15323	0.30534	0.49506	8651.05608	883.28349	4728.81721	1067.21362	0.49492	8564.00000	890.00000	4688.00000
1075.34758	0.30592	0.49441	8931.01237	859.29405	4850.00434	1073.40399	0.49486	8836.00000	860.00000	4807.00000
1081.54194	0.30909	0.49080	9243.78719	871.40916	4980.59717	1079.59436	0.49233	9149.00000	870.00000	4946.00000
1087.73629	0.31487	0.48432	9580.78777	901.76500	5105.16314	1085.78473	0.48654	9462.00000	883.00000	5057.00000
1093.93065	0.32189	0.47655	9940.76391	922.65990	5220.26990	1091.97510	0.47912	9841.00000	933.00000	5201.00000
1100.12500	0.33066	0.46703	10254.38783	869.25749	5252.27262	1098.16547	0.47032	10144.00000	878.00000	5236.00000
1106.31935	0.34057	0.45649	10641.04469	875.00467	5333.13497	1104.35584	0.45967	10519.00000	873.00000	5307.00000
1112.51371	0.35028	0.44639	11015.80766	872.41348	5400.32616	1110.54621	0.44977	10897.00000	874.00000	5382.00000
1118.70806	0.36279	0.43372	11401.60672	872.77123	5439.30054	1116.73658	0.43815	11276.00000	871.00000	5430.00000
1124.90242	0.38125	0.41567	11814.30888	885.70510	5428.54216	1122.92695	0.42226	11680.00000	881.00000	5441.00000
1131.09677	0.41124	0.38794	12236.17715	886.26842	5289.06609	1129.11732	0.39811	12103.00000	890.00000	5354.00000
1137.29113	0.45563	0.35024	12606.57558	854.95675	4971.16739	1135.30769	0.36300	12498.00000	867.00000	5089.00000
1143.48548	0.50763	0.31072	12995.31207	851.62722	4624.56555	1141.49806	0.32295	12851.00000	843.00000	4721.00000
1149.67984	0.55161	0.28079	13491.13514	894.93569	4432.13442	1147.68843	0.28865	13335.00000	884.00000	4478.00000
1155.87419	0.57729	0.26467	13953.07917	885.15852	4343.84098	1153.87880	0.26888	13805.00000	896.00000	4367.00000
1162.06855	0.59578	0.25364	14446.12872	862.12568	4307.54336	1160.06917	0.25714	14279.00000	862.00000	4312.00000
1168.26290	0.61319	0.24368	14959.02414	891.75197	4319.70248	1166.25954	0.24664	14800.00000	881.00000	4314.00000
1174.45726	0.62968	0.23459	15420.71473	898.79570	4305.57187	1172.44991	0.23772	15273.00000	903.00000	4319.00000
1180.65161	0.65263	0.22252	15876.41905	861.08105	4202.16407	1178.64028	0.22689	15728.00000	875.00000	4245.00000
1186.84597	0.67604	0.21084	16371.22020	852.06070	4124.22763	1184.83065	0.21387	16201.00000	846.00000	4130.00000
1193.04032	0.68301	0.20749	16894.18264	880.38932	4203.10094	1191.02102	0.20763	16730.00000	875.00000	4167.00000
1199.23468	0.67903	0.20940	17400.55626	883.09277	4341.82659	1197.21139	0.20872	17229.00000	882.00000	4294.00000
1205.42903	0.67739	0.21019	17922.85290	876.52702	4459.39200	1203.40176	0.21018	17758.00000	882.00000	4429.00000
1211.62339	0.67507	0.21131	18412.23826	867.41129	4574.87199	1209.59213	0.21048	18250.00000	866.00000	4525.00000
1217.81774	0.66239	0.21758	18946.64823	877.09601	4808.68459	1215.78250	0.21490	18763.00000	876.00000	4720.00000
1224.01210	0.64297	0.22753	19522.38589	879.59709	5121.27406	1221.97287	0.22414	19334.00000	877.00000	5014.00000
1230.20645	0.62463	0.23734	20046.82356	877.27220	5427.00943	1228.16324	0.23424	19884.00000	882.00000	5333.00000
1236.40081	0.61048	0.24520	20578.92550	894.33634	5721.01672	1234.35361	0.24291	20387.00000	878.00000	5617.00000
1242.59516	0.60039	0.25096	21116.97255	904.50586	5977.08134	1240.54398	0.24916	20962.00000	919.00000	5913.00000
1248.78952	0.59267	0.25546	21555.61107	852.78714	6141.60221	1246.73435	0.25417	21399.00000	858.00000	6079.00000
1254.98387	0.58778	0.25835	22112.97196	897.03001	6378.27401	1252.92472	0.25752	21917.00000	878.00000	6296.00000
1261.17823	0.58471	0.26019	22669.33634	902.45329	6566.00709	1259.11509	0.25970	22498.00000	915.00000	6520.00000
1267.37258	0.58408	0.26057	23144.86310	840.51764	6652.29711	1265.30546	0.26067	22985.00000	857.00000	6625.00000
1273.56694	0.58625	0.25927	23720.39347	860.92978	6787.64187	1271.49583	0.25983	23506.00000	841.00000	6730.00000
1279.76129	0.59073	0.25661	24372.77955	913.59084	6933.34286	1277.68620	0.25770	24166.00000	906.00000	6900.00000
1285.95565	0.59820	0.25223	24945.52650	893.87771	6960.39562	1283.87657	0.25387	24754.00000	903.00000	6958.00000
1292.15000	0.60831	0.24643	25532.41484	877.59600	6953.26643	1290.06694	0.24853	25332.00000	880.00000	6957.00000
1298.34435	0.62101	0.23933	26175.67024	884.75253	6937.51102	1296.25731	0.24186	25949.00000	881.00000	6944.00000
1304.53871	0.63677	0.23080	26805.92834	868.00311	6854.45371	1302.44769	0.23386	26610.00000	881.00000	6898.00000
1310.73306	0.65618	0.22071	27432.03993	867.23944	6730.25013	1308.63806	0.22427	27196.00000	853.00000	6761.00000
1316.92742	0.67845	0.20968	28161.82657	892.73544	6610.41776	1314.82843	0.21346	27925.00000	899.00000	6668.00000
1323.12177	0.70294	0.19818	28842.74169	862.95220	6407.99310	1321.01880	0.20215	28606.00000	864.00000	6472.00000
1329.31613	0.72915	0.18658	29519.54369	871.94640	6216.94327	1327.20917	0.19046	29300.00000	874.00000	6288.00000
1335.51048	0.75518	0.17572	30183.25265	863.66515	6015.68468	1333.39954	0.17932	29944.00000	862.00000	6077.00000
1341.70484	0.78025	0.16586	30926.51890	893.32929	5874.78363	1339.58991	0.16911	30673.00000	881.00000	5919.00000
1347.89919	0.80513	0.15663	31587.63481	894.88004	5702.34705	1345.78028	0.15980	31380.00000	904.00000	5774.00000
1354.09355	0.83262	0.14702	32227.78710	859.30420	5470.96458	1351.97065	0.15038	31988.00000	867.00000	5547.00000
1360.28790	0.86219	0.13734	32929.95072	867.11433	5270.91741	1358.16102	0.14060	32704.00000	861.00000	5338.00000
1366.48226	0.89387	0.12768	33569.06337	866.55753	5041.94422	1364.35139	0.13111	33341.00000	873.00000	5130.00000
1372.67661	0.93300	0.11668	34261.83351	843.87902	4743.05710	1370.54176	0.12066	34024.00000	848.00000	4851.00000
1378.87097	0.98318	0.10395	34838.67465	870.52277	4401.48549	1376.73213	0.10854	34668.00000	855.00000	4525.00000
1385.06532	1.04295	0.09058	35121.03064	877.10458	3979.13506	1382.92250	0.09511	35059.00000	888.00000	4138.00000
1391.25968	1.10487	0.07855	35289.43299	872.38486	3575.62550	1389.11287	0.08252	35214.00000	858.00000	3693.00000
1397.45403	1.15889	0.06936	35460.60298	899.47130	3296.76998	1395.30324	0.07207	35427.00000	906.00000	3394.00000
1403.64839	1.19635	0.06363	35666.10671	869.36576	3083.36618	1401.49361	0.06538	35545.00000	870.00000	3137.00000
1409.84274	1.22418	0.05968	36323.03255	883.09719	2998.11340	1407.68398	0.06088	36050.00000	883.00000	3024.00000
1416.03710	1.24285	0.05717	37284.68636	884.03189	2964.98529	1413.87435	0.05790	36926.00000	879.00000	2966.00000
1422.23145	1.25424	0.05569	38329.42739	892.53935	2977.33955	1420.06472	0.05613	37970.00000	895.00000	2976.00000
1428.42581	1.26261	0.05462	39434.74114	878.71439	2984.78499	1426.25509	0.05498	39022.00000	881.00000	2978.00000
1434.62016	1.26879	0.05385	40575.07439	880.06733	3017.78754	1432.44546	0.05407	40203.00000	880.00000	3006.00000
1440.81452	1.27176	0.05349	41493.68414	879.47622	3051.77775	1438.63583	0.05359	41184.00000	879.00000	3039.00000
1447.00887	1.27330	0.05330	42510.04768	905.41306	3122.82724	1444.82620	0.05335	42113.00000	891.00000	3090.00000
1453.20323	1.27436	0.05317	43543.72896	892.86717	3160.44115	1451.01657	0.05322	43229.00000	914.00000	3166.00000
1459.39758	1.27416	0.05319	44405.02794	864.61268	3180.60771	1457.20694	0.05313	44070.00000	855.00000	3151.00000
1465.59194	1.27137	0.05353	45481.34063	906.97918	3293.21845	1463.39731	0.05340	45094.00000	903.00000	3263.00000
1471.78629	1.26764	0.05400	46480.51435	890.87025	3352.50961	1469.58768	0.05381	46150.00000	894.00000	3329.00000
1477.98065	1.26176	0.05473	47320.91755	868.50781	3410.92536	1475.77805	0.05444	47029.00000	883.00000	3395.00000
1484.17500	1.25445	0.05566	48225.65661	857.63729	3494.22515	1481.96842	0.05532	47881.00000	849.00000	3451.00000
1490.36935	1.24689	0.05664	49092.30051	893.89890	3623.77461	1488.15879	0.05628	48824.00000	887.00000	3585.00000
1496.56371	1.23838	0.05776	49778.04514	887.35808	3711.23876	1494.34916	0.05733	49521.00000	891.00000	3679.00000
1502.75806	1.22797	0.05916	50469.48096	863.36996	3798.07122	1500.53953	0.05862	50241.00000	875.00000	3769.00000
1508.95242	1.21749	0.06061	51158.04064	897.54966	3943.60863	1506.72990	0.06012	50884.00000	867.00000	3874.00000
1515.14677	1.20734	0.06204	51878.91086	902.58342	4065.07476	1512.92027	0.06148	51650.00000	933.00000	4051.00000
1521.34113	1.19583	0.06371	52577.57434	850.45197	4145.74250	1519.11064	0.06311	52288.00000	838.00000	4085.00000
1527.53548	1.18454	0.06538	53324.26188	911.75147	4338.58496	1525.30101	0.06476	53098.00000	907.00000	4287.00000
1533.72984	1.17298	0.06715	53919.19306	885.74627	4446.74189	1531.49138	0.06651	53680.00000	890.00000	4401.00000
1539.92419	1.16179	0.06890	54593.00479	874.24673	4575.38261	1537.68175	0.06826	54367.00000	884.00000	4535.00000
1546.11855	1.15110	0.07062	55208.54831	866.87961	4704.27948	1543.87212	0.07000	54973.00000	860.00000	4648.00000
1552.31290	1.14060	0.07234	55811.51925	888.84465	4862.06461	1550.06249	0.07170	55614.00000	887.00000	4811.00000
1558.50726	1.13020	0.07410	56431.29012	888.46797	5004.05484	1556.25286	0.07347	56172.00000	885.00000	4947.00000
1564.70161	1.12031	0.07580	57011.94896	890.80855	5144.95087	1562.44323	0.07517	56858.00000	895.00000	5102.00000
1570.89597	1.11081	0.07748	57413.89650	869.93991	5251.05122	1568.63360	0.07689	57231.00000	876.00000	5209.00000
1577.09032	1.10222	0.07903	57979.03512	879.44141	5391.89329	1574.82397	0.07847	57786.00000	871.00000	5337.00000
1583.28468	1.09381	0.08057	58450.11400	894.72676	5532.20017	1581.01434	0.08000	58279.00000	894.00000	5485.00000
1589.47903	1.08619	0.08200	58825.25008	895.18773	5645.39122	1587.20471	0.08151	58712.00000	892.00000	5605.00000
1595.67339	1.07939	0.08329	59146.72764	885.70009	5738.51094	1593.39508	0.08280	59009.00000	896.00000	5708.00000
1601.86774	1.07277	0.08457	59574.82387	893.37146	5856.24298	1599.58545	0.08413	59419.00000	877.00000	5802.00000
1608.06210	1.06691	0.08572	59920.72690	909.46488	5968.01793	1605.77582	0.08530	59809.00000	920.00000	5943.00000
1614.25645	1.06151	0.08679	60220.95853	887.30010	6037.11390	1611.96619	0.08642	60102.00000	882.00000	6000.00000
1620.45081	1.05732	0.08764	60438.83040	897.12192	6115.06854	1618.15656	0.08735	60391.00000	905.00000	6101.00000
1626.64516	1.05384	0.08834	60579.30309	884.35356	6157.88255	1624.34693	0.08809	60502.00000	878.00000	6130.00000
1632.83952	1.05115	0.08889	60848.95373	899.57786	6228.48881	1630.53730	0.08872	60754.00000	903.00000	6213.00000
1639.03387	1.04904	0.08932	60928.35809	870.27700	6234.76648	1636.72767	0.08915	60938.00000	879.00000	6233.00000
1645.22823	1.04636	0.08988	60778.06969	873.98452	6257.98664	1642.91804	0.08966	60849.00000	868.00000	6246.00000
1651.42258	1.04332	0.09051	59777.88214	914.49031	6241.98842	1649.10841	0.09026	60357.00000	896.00000	6263.00000
1657.61694	1.04067	0.09106	57642.70006	920.63108	6085.79866	1655.29878	0.09089	58452.00000	931.00000	6159.00000
1663.81129	1.03937	0.09133	56689.89176	898.36344	5993.96421	1661.48915	0.09126	56762.00000	897.00000	5995.00000
1670.00565	1.03853	0.09151	55553.85124	917.06266	5916.86969	1667.67952	0.09144	56404.00000	914.00000	5988.00000
1676.20000	1.03880	0.09145	52318.47966	879.24303	5583.18633	1673.86989	0.09155	53497.00000	901.00000	5716.00000
0.00000	0.00000	0.00000	0.00000	0.00000	0.00000	1680.06026	0.09096	50136.00000	860.00000	5342.00000
0.00000	0.00000	0.00000	0.00000	0.00000	0.00000	1686.25063	0.08959	46019.00000	923.00000	4963.00000
0.00000	0.00000	0.00000	0.00000	0.00000	0.00000	1692.44100	0.08959	46019.00000	923.00000	4963.00000
