'File neuburger liquid milk-塑料_4_2016一月28_1111.xls
'Part ID neuburger liquid milk-塑料_4
'Scan Created 2016/1/28 11:11:25
'Instrument S1-00205
'Version 1.5.7
'Integration Time 10100 s
'Number of Scans 50
'Units Absorbance
'Thermistor 47.43
Wavelength	Absorbance	Normalized	100%	dark	Raw 1	Native Wvl	Native Norm	Native 100%	Native dark	Native 1
908.10000	0.62130	0.23917	3595.82598	881.87120	1529.87359	906.26400	0.22932	3684.00000	880.00000	1523.00000
914.29435	0.56165	0.27438	3338.07467	866.26472	1544.76001	912.45437	0.26345	3404.00000	876.00000	1542.00000
920.48871	0.51018	0.30890	3265.72768	878.51909	1615.92119	918.64474	0.29954	3257.00000	860.00000	1578.00000
926.68306	0.46991	0.33891	3334.01990	918.74175	1737.25512	924.83511	0.32958	3324.00000	924.00000	1715.00000
932.87742	0.43160	0.37017	3389.36197	864.93184	1799.48378	931.02548	0.36129	3355.00000	875.00000	1771.00000
939.07177	0.40500	0.39355	3619.59224	884.95115	1961.16097	937.21585	0.38776	3537.00000	873.00000	1906.00000
945.26613	0.39249	0.40505	3856.44440	889.93616	2091.50274	943.40622	0.40283	3802.00000	900.00000	2069.00000
951.46048	0.39381	0.40382	4005.12223	859.91735	2130.05289	949.59659	0.40568	3955.00000	859.00000	2115.00000
957.65484	0.40689	0.39184	4215.51392	893.73656	2195.18347	955.78696	0.39595	4148.00000	885.00000	2177.00000
963.84919	0.41669	0.38310	4374.23623	878.43417	2217.81236	961.97733	0.38430	4344.00000	891.00000	2218.00000
970.04355	0.41701	0.38281	4523.41127	896.06510	2284.57402	968.16770	0.38303	4453.00000	871.00000	2243.00000
976.23790	0.41764	0.38226	4726.50938	925.04592	2378.23669	974.35807	0.38207	4693.00000	945.00000	2377.00000
982.43226	0.41430	0.38521	4835.26800	856.06452	2388.92013	980.54844	0.38405	4778.00000	854.00000	2361.00000
988.62661	0.40969	0.38932	5079.18703	905.14928	2530.16435	986.73881	0.38813	5013.00000	901.00000	2497.00000
994.82097	0.40548	0.39311	5288.13901	870.37131	2607.15605	992.92918	0.39193	5216.00000	881.00000	2580.00000
1001.01532	0.40230	0.39601	5547.24444	876.96250	2726.24180	999.11955	0.39539	5470.00000	867.00000	2687.00000
1007.20968	0.39730	0.40059	5821.73207	889.84005	2865.77756	1005.30992	0.39830	5729.00000	896.00000	2821.00000
1013.40403	0.38488	0.41221	6108.36987	875.33513	3032.23932	1011.50029	0.40825	6031.00000	870.00000	2977.00000
1019.59839	0.37128	0.42532	6349.51155	919.49996	3229.14540	1017.69066	0.42138	6269.00000	908.00000	3167.00000
1025.79274	0.35937	0.43715	6610.09178	908.88037	3401.11908	1023.88103	0.43366	6536.00000	921.00000	3356.00000
1031.98710	0.34814	0.44860	6863.27600	885.10537	3566.94298	1030.07140	0.44493	6776.00000	883.00000	3505.00000
1038.18145	0.33684	0.46042	7137.95533	879.30949	3760.95841	1036.26177	0.45689	7062.00000	892.00000	3711.00000
1044.37581	0.32812	0.46976	7415.45215	852.78191	3935.66334	1042.45214	0.46729	7313.00000	848.00000	3869.00000
1050.57016	0.32186	0.47658	7763.75520	889.74850	4165.77328	1048.64251	0.47448	7664.00000	884.00000	4101.00000
1056.76452	0.31633	0.48270	8043.98752	873.54577	4334.69916	1054.83288	0.48099	7958.00000	881.00000	4285.00000
1062.95887	0.31338	0.48598	8346.47029	875.55305	4506.26237	1061.02325	0.48536	8246.00000	868.00000	4449.00000
1069.15323	0.31294	0.48647	8651.05608	883.28349	4662.10488	1067.21362	0.48645	8564.00000	890.00000	4623.00000
1075.34758	0.31347	0.48588	8931.01237	859.29405	4781.18451	1073.40399	0.48621	8836.00000	860.00000	4738.00000
1081.54194	0.31616	0.48288	9243.78719	871.40916	4914.23596	1079.59436	0.48424	9149.00000	870.00000	4879.00000
1087.73629	0.32201	0.47642	9580.78777	901.76500	5036.62344	1085.78473	0.47873	9462.00000	883.00000	4990.00000
1093.93065	0.32927	0.46852	9940.76391	922.65990	5147.88269	1091.97510	0.47104	9841.00000	933.00000	5129.00000
1100.12500	0.33789	0.45931	10254.38783	869.25749	5179.86960	1098.16547	0.46255	10144.00000	878.00000	5164.00000
1106.31935	0.34811	0.44863	10641.04469	875.00467	5256.41166	1104.35584	0.45190	10519.00000	873.00000	5232.00000
1112.51371	0.35810	0.43843	11015.80766	872.41348	5319.59822	1110.54621	0.44178	10897.00000	874.00000	5302.00000
1118.70806	0.37056	0.42603	11401.60672	872.77123	5358.33418	1116.73658	0.43037	11276.00000	871.00000	5349.00000
1124.90242	0.38907	0.40825	11814.30888	885.70510	5347.42037	1122.92695	0.41476	11680.00000	881.00000	5360.00000
1131.09677	0.41948	0.38064	12236.17715	886.26842	5206.28770	1129.11732	0.39080	12103.00000	890.00000	5272.00000
1137.29113	0.46431	0.34331	12606.57558	854.95675	4889.75032	1135.30769	0.35586	12498.00000	867.00000	5006.00000
1143.48548	0.51619	0.30465	12995.31207	851.62722	4550.88704	1141.49806	0.31662	12851.00000	843.00000	4645.00000
1149.67984	0.56072	0.27497	13491.13514	894.93569	4358.72593	1147.68843	0.28287	13335.00000	884.00000	4406.00000
1155.87419	0.58706	0.25879	13953.07917	885.15852	4266.95774	1153.87880	0.26292	13805.00000	896.00000	4290.00000
1162.06855	0.60505	0.24829	14446.12872	862.12568	4234.74872	1160.06917	0.25162	14279.00000	862.00000	4238.00000
1168.26290	0.62247	0.23852	14959.02414	891.75197	4247.19200	1166.25954	0.24147	14800.00000	881.00000	4242.00000
1174.45726	0.63924	0.22949	15420.71473	898.79570	4231.42117	1172.44991	0.23257	15273.00000	903.00000	4245.00000
1180.65161	0.66177	0.21789	15876.41905	861.08105	4132.57990	1178.64028	0.22204	15728.00000	875.00000	4173.00000
1186.84597	0.68470	0.20668	16371.22020	852.06070	4059.62455	1184.83065	0.20964	16201.00000	846.00000	4065.00000
1193.04032	0.69178	0.20334	16894.18264	880.38932	4136.68403	1191.02102	0.20347	16730.00000	875.00000	4101.00000
1199.23468	0.68761	0.20530	17400.55626	883.09277	4274.10419	1197.21139	0.20462	17229.00000	882.00000	4227.00000
1205.42903	0.68583	0.20615	17922.85290	876.52702	4390.50719	1203.40176	0.20609	17758.00000	882.00000	4360.00000
1211.62339	0.68367	0.20717	18412.23826	867.41129	4502.15185	1209.59213	0.20645	18250.00000	866.00000	4455.00000
1217.81774	0.67161	0.21301	18946.64823	877.09601	4726.13381	1215.78250	0.21043	18763.00000	876.00000	4640.00000
1224.01210	0.65230	0.22269	19522.38589	879.59709	5031.11784	1221.97287	0.21943	19334.00000	877.00000	4927.00000
1230.20645	0.63468	0.23191	20046.82356	877.27220	5322.88198	1228.16324	0.22903	19884.00000	882.00000	5234.00000
1236.40081	0.62098	0.23934	20578.92550	894.33634	5605.68349	1234.35361	0.23712	20387.00000	878.00000	5504.00000
1242.59516	0.61077	0.24503	21116.97255	904.50586	5857.25239	1240.54398	0.24328	20962.00000	919.00000	5795.00000
1248.78952	0.60330	0.24928	21555.61107	852.78714	6013.66140	1246.73435	0.24809	21399.00000	858.00000	5954.00000
1254.98387	0.59876	0.25190	22112.97196	897.03001	6241.41450	1252.92472	0.25115	21917.00000	878.00000	6162.00000
1261.17823	0.59572	0.25368	22669.33634	902.45329	6424.19851	1259.11509	0.25316	22498.00000	915.00000	6379.00000
1267.37258	0.59502	0.25409	23144.86310	840.51764	6507.72685	1265.30546	0.25420	22985.00000	857.00000	6482.00000
1273.56694	0.59747	0.25266	23720.39347	860.92978	6636.56273	1271.49583	0.25325	23506.00000	841.00000	6581.00000
1279.76129	0.60204	0.25001	24372.77955	913.59084	6778.63990	1277.68620	0.25107	24166.00000	906.00000	6746.00000
1285.95565	0.60944	0.24579	24945.52650	893.87771	6805.45418	1283.87657	0.24737	24754.00000	903.00000	6803.00000
1292.15000	0.61973	0.24003	25532.41484	877.59600	6795.56564	1290.06694	0.24215	25332.00000	880.00000	6801.00000
1298.34435	0.63274	0.23295	26175.67024	884.75253	6776.18297	1296.25731	0.23544	25949.00000	881.00000	6783.00000
1304.53871	0.64866	0.22457	26805.92834	868.00311	6692.84838	1302.44769	0.22760	26610.00000	881.00000	6737.00000
1310.73306	0.66841	0.21458	27432.03993	867.23944	6567.48167	1308.63806	0.21808	27196.00000	853.00000	6598.00000
1316.92742	0.69098	0.20372	28161.82657	892.73544	6447.87998	1314.82843	0.20747	27925.00000	899.00000	6506.00000
1323.12177	0.71596	0.19233	28842.74169	862.95220	6244.13363	1321.01880	0.19624	28606.00000	864.00000	6308.00000
1329.31613	0.74241	0.18096	29519.54369	871.94640	6056.19005	1327.20917	0.18476	29300.00000	874.00000	6126.00000
1335.51048	0.76878	0.17030	30183.25265	863.66515	5856.85123	1333.39954	0.17385	29944.00000	862.00000	5918.00000
1341.70484	0.79430	0.16058	30926.51890	893.32929	5716.12996	1339.58991	0.16377	30673.00000	881.00000	5760.00000
1347.89919	0.81921	0.15163	31587.63481	894.88004	5549.00590	1345.78028	0.15468	31380.00000	904.00000	5618.00000
1354.09355	0.84662	0.14236	32227.78710	859.30420	5324.67639	1351.97065	0.14563	31988.00000	867.00000	5399.00000
1360.28790	0.87646	0.13290	32929.95072	867.11433	5128.58584	1358.16102	0.13607	32704.00000	861.00000	5194.00000
1366.48226	0.90820	0.12354	33569.06337	866.55753	4906.49535	1364.35139	0.12686	33341.00000	873.00000	4992.00000
1372.67661	0.94792	0.11274	34261.83351	843.87902	4611.36866	1370.54176	0.11668	34024.00000	848.00000	4719.00000
1378.87097	0.99933	0.10015	34838.67465	870.52277	4272.59781	1376.73213	0.10466	34668.00000	855.00000	4394.00000
1385.06532	1.06048	0.08700	35121.03064	877.10458	3856.40445	1382.92250	0.09148	35059.00000	888.00000	4014.00000
1391.25968	1.12442	0.07509	35289.43299	872.38486	3456.63053	1389.11287	0.07900	35214.00000	858.00000	3572.00000
1397.45403	1.18055	0.06599	35460.60298	899.47130	3180.10417	1395.30324	0.06871	35427.00000	906.00000	3278.00000
1403.64839	1.22027	0.06022	35666.10671	869.36576	2964.75465	1401.49361	0.06195	35545.00000	870.00000	3018.00000
1409.84274	1.24900	0.05636	36323.03255	883.09719	2880.57727	1407.68398	0.05755	36050.00000	883.00000	2907.00000
1416.03710	1.26885	0.05385	37284.68636	884.03189	2844.07989	1413.87435	0.05457	36926.00000	879.00000	2846.00000
1422.23145	1.28114	0.05234	38329.42739	892.53935	2852.07797	1420.06472	0.05281	37970.00000	895.00000	2853.00000
1428.42581	1.29012	0.05127	39434.74114	878.71439	2855.57152	1426.25509	0.05160	39022.00000	881.00000	2849.00000
1434.62016	1.29614	0.05057	40575.07439	880.06733	2887.28778	1432.44546	0.05078	40203.00000	880.00000	2877.00000
1440.81452	1.30006	0.05011	41493.68414	879.47622	2914.74501	1438.63583	0.05024	41184.00000	879.00000	2904.00000
1447.00887	1.30195	0.04989	42510.04768	905.41306	2981.26004	1444.82620	0.04995	42113.00000	891.00000	2950.00000
1453.20323	1.30252	0.04983	43543.72896	892.86717	3018.11902	1451.01657	0.04984	43229.00000	914.00000	3023.00000
1459.39758	1.30210	0.04988	44405.02794	864.61268	3036.26539	1457.20694	0.04984	44070.00000	855.00000	3009.00000
1465.59194	1.29985	0.05014	45481.34063	906.97918	3141.75882	1463.39731	0.05001	45094.00000	903.00000	3113.00000
1471.78629	1.29541	0.05065	46480.51435	890.87025	3200.00944	1469.58768	0.05045	46150.00000	894.00000	3177.00000
1477.98065	1.28951	0.05134	47320.91755	868.50781	3253.54203	1475.77805	0.05108	47029.00000	883.00000	3240.00000
1484.17500	1.28231	0.05220	48225.65661	857.63729	3330.37904	1481.96842	0.05188	47881.00000	849.00000	3289.00000
1490.36935	1.27428	0.05318	49092.30051	893.89890	3456.88093	1488.15879	0.05282	48824.00000	887.00000	3419.00000
1496.56371	1.26508	0.05431	49778.04514	887.35808	3542.86222	1494.34916	0.05388	49521.00000	891.00000	3511.00000
1502.75806	1.25461	0.05564	50469.48096	863.36996	3623.44039	1500.53953	0.05516	50241.00000	875.00000	3598.00000
1508.95242	1.24425	0.05698	51158.04064	897.54966	3761.57127	1506.72990	0.05650	50884.00000	867.00000	3693.00000
1515.14677	1.23325	0.05844	51878.91086	902.58342	3881.89008	1512.92027	0.05789	51650.00000	933.00000	3869.00000
1521.34113	1.22149	0.06005	52577.57434	850.45197	3956.67515	1519.11064	0.05948	52288.00000	838.00000	3898.00000
1527.53548	1.20976	0.06169	53324.26188	911.75147	4145.27710	1525.30101	0.06108	53098.00000	907.00000	4095.00000
1533.72984	1.19785	0.06341	53919.19306	885.74627	4248.54378	1531.49138	0.06280	53680.00000	890.00000	4205.00000
1539.92419	1.18632	0.06511	54593.00479	874.24673	4372.08711	1537.68175	0.06449	54367.00000	884.00000	4333.00000
1546.11855	1.17511	0.06682	55208.54831	866.87961	4497.87121	1543.87212	0.06621	54973.00000	860.00000	4443.00000
1552.31290	1.16418	0.06852	55811.51925	888.84465	4652.12129	1550.06249	0.06788	55614.00000	887.00000	4602.00000
1558.50726	1.15314	0.07028	56431.29012	888.46797	4792.29449	1556.25286	0.06965	56172.00000	885.00000	4736.00000
1564.70161	1.14321	0.07191	57011.94896	890.80855	4926.43429	1562.44323	0.07133	56858.00000	895.00000	4887.00000
1570.89597	1.13367	0.07351	57413.89650	869.93991	5026.38393	1568.63360	0.07291	57231.00000	876.00000	4985.00000
1577.09032	1.12414	0.07514	57979.03512	879.44141	5169.78554	1574.82397	0.07455	57786.00000	871.00000	5114.00000
1583.28468	1.11546	0.07666	58450.11400	894.72676	5306.69466	1581.01434	0.07612	58279.00000	894.00000	5262.00000
1589.47903	1.10781	0.07802	58825.25008	895.18773	5414.68417	1587.20471	0.07753	58712.00000	892.00000	5375.00000
1595.67339	1.10047	0.07935	59146.72764	885.70009	5508.57196	1593.39508	0.07885	59009.00000	896.00000	5478.00000
1601.86774	1.09357	0.08062	59574.82387	893.37146	5624.09346	1599.58545	0.08018	59419.00000	877.00000	5571.00000
1608.06210	1.08775	0.08170	59920.72690	909.46488	5730.94864	1605.77582	0.08131	59809.00000	920.00000	5708.00000
1614.25645	1.08206	0.08278	60220.95853	887.30010	5799.08481	1611.96619	0.08239	60102.00000	882.00000	5761.00000
1620.45081	1.07726	0.08370	60438.83040	897.12192	5880.88469	1618.15656	0.08340	60391.00000	905.00000	5866.00000
1626.64516	1.07398	0.08434	60579.30309	884.35356	5918.91400	1624.34693	0.08413	60502.00000	878.00000	5894.00000
1632.83952	1.07115	0.08489	60848.95373	899.57786	5988.66066	1630.53730	0.08468	60754.00000	903.00000	5971.00000
1639.03387	1.06831	0.08545	60928.35809	870.27700	6001.96225	1636.72767	0.08525	60938.00000	879.00000	5999.00000
1645.22823	1.06574	0.08595	60778.06969	873.98452	6022.99664	1642.91804	0.08576	60849.00000	868.00000	6012.00000
1651.42258	1.06276	0.08654	59777.88214	914.49031	6008.68672	1649.10841	0.08631	60357.00000	896.00000	6028.00000
1657.61694	1.05993	0.08711	57642.70006	920.63108	5861.77312	1655.29878	0.08692	58452.00000	931.00000	5931.00000
1663.81129	1.05839	0.08742	56689.89176	898.36344	5775.65533	1661.48915	0.08734	56762.00000	897.00000	5776.00000
1670.00565	1.05772	0.08756	55553.85124	917.06266	5700.90304	1667.67952	0.08751	56404.00000	914.00000	5770.00000
1676.20000	1.05770	0.08756	52318.47966	879.24303	5382.74774	1673.86989	0.08759	53497.00000	901.00000	5508.00000
0.00000	0.00000	0.00000	0.00000	0.00000	0.00000	1680.06026	0.08718	50136.00000	860.00000	5156.00000
0.00000	0.00000	0.00000	0.00000	0.00000	0.00000	1686.25063	0.08584	46019.00000	923.00000	4794.00000
0.00000	0.00000	0.00000	0.00000	0.00000	0.00000	1692.44100	0.08584	46019.00000	923.00000	4794.00000
