'File neuburger liquid milk_1_2016Ò»ÔÂ28_1107.xls
'Part ID neuburger liquid milk_1
'Scan Created 2016/1/28 11:07:45
'Instrument S1-00205
'Version 1.5.7
'Integration Time 10100 µs
'Number of Scans 50
'Units Absorbance
'Thermistor 49.04
Wavelength	Absorbance	Normalized	100%	dark	Raw 1	Native Wvl	Native Norm	Native 100%	Native dark	Native 1
908.10000	0.62219	0.23868	3631.60170	887.38072	1540.97480	906.26400	0.22763	3726.00000	888.00000	1534.00000
914.29435	0.56354	0.27319	3355.15374	866.53591	1546.84224	912.45437	0.26363	3426.00000	877.00000	1549.00000
920.48871	0.51804	0.30336	3277.49982	884.81219	1610.61104	918.64474	0.29439	3268.00000	863.00000	1571.00000
926.68306	0.47737	0.33314	3343.45004	929.35238	1733.50554	924.83511	0.32445	3337.00000	936.00000	1715.00000
932.87742	0.44210	0.36132	3383.28304	868.28464	1777.14765	931.02548	0.35301	3352.00000	879.00000	1752.00000
939.07177	0.41626	0.38347	3611.37944	894.13722	1936.05459	937.21585	0.37826	3529.00000	880.00000	1882.00000
945.26613	0.40557	0.39303	3844.72639	899.10262	2056.87445	943.40622	0.39118	3792.00000	911.00000	2038.00000
951.46048	0.40816	0.39070	3990.33118	866.12413	2086.71910	949.59659	0.39304	3940.00000	864.00000	2073.00000
957.65484	0.42187	0.37856	4200.05980	902.17596	2150.55782	955.78696	0.38222	4134.00000	895.00000	2133.00000
963.84919	0.43097	0.37071	4353.84452	879.91433	2167.77874	961.97733	0.37219	4324.00000	893.00000	2170.00000
970.04355	0.43218	0.36967	4508.91214	907.31519	2238.72854	968.16770	0.36959	4436.00000	878.00000	2193.00000
976.23790	0.43140	0.37034	4705.59533	937.65994	2333.02264	974.35807	0.37019	4678.00000	961.00000	2337.00000
982.43226	0.42914	0.37227	4802.55705	859.82822	2327.64247	980.54844	0.37124	4744.00000	857.00000	2300.00000
988.62661	0.42461	0.37617	5056.66426	916.85736	2474.06579	986.73881	0.37518	4990.00000	912.00000	2442.00000
994.82097	0.42122	0.37912	5256.24217	876.58448	2537.09499	992.92918	0.37808	5187.00000	889.00000	2514.00000
1001.01532	0.41695	0.38287	5512.58508	883.10465	2655.47137	999.11955	0.38177	5435.00000	872.00000	2614.00000
1007.20968	0.41122	0.38795	5788.50166	898.57481	2795.76709	1005.30992	0.38593	5696.00000	905.00000	2754.00000
1013.40403	0.39904	0.39899	6072.99229	882.74563	2953.45078	1011.50029	0.39480	5996.00000	877.00000	2898.00000
1019.59839	0.38418	0.41288	6314.91830	932.50172	3154.83780	1017.69066	0.40903	6234.00000	919.00000	3093.00000
1025.79274	0.37310	0.42354	6573.69285	922.56055	3316.03356	1023.88103	0.42031	6501.00000	936.00000	3275.00000
1031.98710	0.36200	0.43451	6822.60659	893.07597	3469.54900	1030.07140	0.43104	6736.00000	892.00000	3411.00000
1038.18145	0.35128	0.44536	7091.93867	885.35218	3649.54602	1036.26177	0.44216	7019.00000	899.00000	3605.00000
1044.37581	0.34298	0.45396	7363.86368	859.13309	3812.01611	1042.45214	0.45162	7261.00000	853.00000	3747.00000
1050.57016	0.33680	0.46046	7715.60572	899.67643	4038.17247	1048.64251	0.45849	7616.00000	894.00000	3976.00000
1056.76452	0.33155	0.46607	7990.08201	879.28988	4193.41401	1054.83288	0.46452	7906.00000	888.00000	4148.00000
1062.95887	0.32877	0.46907	8290.90811	881.38538	4356.92199	1061.02325	0.46850	8190.00000	873.00000	4301.00000
1069.15323	0.32872	0.46911	8594.49516	891.34108	4504.98117	1067.21362	0.46932	8509.00000	898.00000	4470.00000
1075.34758	0.33024	0.46748	8869.42411	866.08467	4607.46435	1073.40399	0.46813	8775.00000	867.00000	4569.00000
1081.54194	0.33367	0.46379	9180.37064	878.57490	4728.90877	1079.59436	0.46529	9087.00000	877.00000	4697.00000
1087.73629	0.33972	0.45738	9518.08432	912.82879	4848.69399	1085.78473	0.45961	9397.00000	892.00000	4801.00000
1093.93065	0.34706	0.44971	9883.21965	935.27892	4959.34175	1091.97510	0.45219	9784.00000	947.00000	4943.00000
1100.12500	0.35597	0.44058	10189.43579	874.75904	4978.56450	1098.16547	0.44378	10081.00000	885.00000	4966.00000
1106.31935	0.36619	0.43034	10571.21947	880.27745	5050.73488	1104.35584	0.43341	10451.00000	878.00000	5027.00000
1112.51371	0.37544	0.42127	10942.70823	878.68148	5118.32749	1110.54621	0.42418	10824.00000	880.00000	5098.00000
1118.70806	0.38710	0.41011	11327.28901	880.36626	5164.70290	1116.73658	0.41414	11203.00000	878.00000	5154.00000
1124.90242	0.40480	0.39373	11737.96513	895.13068	5164.38614	1122.92695	0.39961	11603.00000	890.00000	5171.00000
1131.09677	0.43256	0.36935	12159.20082	894.20587	5054.69372	1129.11732	0.37829	12028.00000	899.00000	5109.00000
1137.29113	0.47243	0.33695	12517.91825	858.91114	4787.68610	1135.30769	0.34772	12413.00000	872.00000	4885.00000
1143.48548	0.51601	0.30478	12902.53527	854.78999	4526.41916	1141.49806	0.31456	12758.00000	846.00000	4593.00000
1149.67984	0.55130	0.28100	13402.02972	901.50594	4414.37891	1147.68843	0.28731	13245.00000	889.00000	4439.00000
1155.87419	0.57296	0.26733	13861.10201	893.85769	4360.22223	1153.87880	0.27104	13715.00000	905.00000	4377.00000
1162.06855	0.58671	0.25900	14347.55669	869.15501	4360.05830	1160.06917	0.26117	14182.00000	869.00000	4346.00000
1168.26290	0.59427	0.25453	14858.78867	902.05632	4454.44869	1166.25954	0.25568	14700.00000	890.00000	4421.00000
1174.45726	0.59973	0.25135	15318.77020	908.12217	4530.17004	1172.44991	0.25242	15172.00000	914.00000	4513.00000
1180.65161	0.60571	0.24791	15767.36224	863.24000	4558.08117	1178.64028	0.24900	15622.00000	879.00000	4550.00000
1186.84597	0.61099	0.24491	16257.21997	856.02131	4627.98865	1184.83065	0.24582	16087.00000	848.00000	4594.00000
1193.04032	0.61509	0.24261	16782.08209	888.28742	4744.28663	1191.02102	0.24328	16618.00000	883.00000	4711.00000
1199.23468	0.61723	0.24142	17285.78314	889.31352	4847.73073	1197.21139	0.24163	17115.00000	888.00000	4809.00000
1205.42903	0.61747	0.24129	17803.74950	884.81986	4967.10826	1203.40176	0.24130	17641.00000	890.00000	4932.00000
1211.62339	0.61664	0.24175	18288.93541	875.40966	5085.11595	1209.59213	0.24147	18127.00000	874.00000	5040.00000
1217.81774	0.61373	0.24337	18822.64326	884.77349	5250.35968	1215.78250	0.24273	18640.00000	884.00000	5194.00000
1224.01210	0.61008	0.24542	19394.64244	886.64944	5428.95967	1221.97287	0.24477	19207.00000	884.00000	5369.00000
1230.20645	0.60692	0.24722	19914.02804	883.65052	5588.32503	1228.16324	0.24665	19754.00000	889.00000	5542.00000
1236.40081	0.60409	0.24883	20443.22257	901.67246	5764.24136	1234.35361	0.24832	20250.00000	884.00000	5693.00000
1242.59516	0.60148	0.25034	20983.55704	913.92874	5938.07338	1240.54398	0.24984	20830.00000	929.00000	5901.00000
1248.78952	0.59943	0.25152	21408.59755	857.51963	6026.46054	1246.73435	0.25121	21257.00000	864.00000	5987.00000
1254.98387	0.59860	0.25200	21963.19232	903.80541	6210.76125	1252.92472	0.25189	21765.00000	883.00000	6143.00000
1261.17823	0.59869	0.25195	22524.12622	912.01295	6357.14389	1259.11509	0.25204	22354.00000	925.00000	6326.00000
1267.37258	0.60051	0.25089	22986.17424	842.53220	6398.24064	1265.30546	0.25140	22831.00000	862.00000	6385.00000
1273.56694	0.60426	0.24874	23559.26654	863.90001	6509.11131	1271.49583	0.24953	23343.00000	841.00000	6456.00000
1279.76129	0.60978	0.24560	24218.67788	926.08554	6646.65053	1277.68620	0.24682	24011.00000	917.00000	6617.00000
1285.95565	0.61807	0.24095	24785.86259	903.53597	6658.02693	1283.87657	0.24266	24597.00000	914.00000	6661.00000
1292.15000	0.62889	0.23502	25365.44201	883.30871	6637.14230	1290.06694	0.23715	25167.00000	887.00000	6645.00000
1298.34435	0.64214	0.22796	26006.36071	890.98563	6616.27308	1296.25731	0.23046	25780.00000	886.00000	6623.00000
1304.53871	0.65844	0.21957	26630.05012	874.57447	6529.64604	1302.44769	0.22259	26438.00000	889.00000	6576.00000
1310.73306	0.67810	0.20985	27248.70963	870.57155	6405.88667	1308.63806	0.21321	27013.00000	856.00000	6433.00000
1316.92742	0.70029	0.19940	27978.22492	899.13143	6298.55789	1314.82843	0.20303	27743.00000	905.00000	6354.00000
1323.12177	0.72489	0.18841	28652.08032	869.20776	6103.80001	1321.01880	0.19214	28417.00000	870.00000	6163.00000
1329.31613	0.75091	0.17745	29326.86979	878.77526	5927.04346	1327.20917	0.18117	29108.00000	881.00000	5995.00000
1335.51048	0.77696	0.16712	29988.89296	869.55617	5736.07162	1333.39954	0.17049	29750.00000	868.00000	5792.00000
1341.70484	0.80063	0.15826	30733.28624	901.63739	5622.76763	1339.58991	0.16113	30479.00000	888.00000	5656.00000
1347.89919	0.82246	0.15050	31395.47560	904.19541	5493.16960	1345.78028	0.15307	31188.00000	914.00000	5548.00000
1354.09355	0.84284	0.14360	32034.90903	863.56270	5339.78418	1351.97065	0.14585	31795.00000	873.00000	5383.00000
1360.28790	0.86293	0.13711	32743.01691	871.12261	5241.17446	1358.16102	0.13940	32514.00000	864.00000	5276.00000
1366.48226	0.88820	0.12936	33379.68608	871.90470	5077.09076	1364.35139	0.13226	33156.00000	879.00000	5148.00000
1372.67661	0.92341	0.11929	34057.83020	846.79614	4808.38287	1370.54176	0.12304	33823.00000	851.00000	4908.00000
1378.87097	0.97146	0.10679	34635.73096	877.09747	4482.27532	1376.73213	0.11136	34464.00000	860.00000	4602.00000
1385.06532	1.03170	0.09296	34918.15111	884.17886	4048.08318	1382.92250	0.09776	34857.00000	896.00000	4216.00000
1391.25968	1.09695	0.07999	35084.43105	880.25362	3616.26048	1389.11287	0.08426	35009.00000	864.00000	3741.00000
1397.45403	1.15708	0.06965	35256.60430	908.81558	3301.26053	1395.30324	0.07287	35223.00000	917.00000	3417.00000
1403.64839	1.20467	0.06242	35460.41902	874.93094	3033.72749	1401.49361	0.06462	35340.00000	875.00000	3102.00000
1409.84274	1.23925	0.05764	36115.28464	889.95740	2920.45698	1407.68398	0.05908	35843.00000	891.00000	2956.00000
1416.03710	1.26324	0.05455	37072.63964	889.06257	2862.71969	1413.87435	0.05548	36716.00000	883.00000	2871.00000
1422.23145	1.27971	0.05252	38109.58329	899.84710	2853.97859	1420.06472	0.05313	37753.00000	903.00000	2861.00000
1428.42581	1.29125	0.05114	39209.59470	884.48669	2844.35136	1426.25509	0.05157	38798.00000	886.00000	2841.00000
1434.62016	1.29943	0.05019	40343.69229	887.36652	2867.50067	1432.44546	0.05048	39975.00000	888.00000	2861.00000
1440.81452	1.30491	0.04955	41256.54733	884.84875	2885.45740	1438.63583	0.04975	40947.00000	884.00000	2877.00000
1447.00887	1.30800	0.04920	42277.45577	916.93848	2952.04836	1444.82620	0.04929	41879.00000	900.00000	2920.00000
1453.20323	1.31014	0.04896	43305.97151	900.84361	2977.05966	1451.01657	0.04906	42995.00000	926.00000	2990.00000
1459.39758	1.31128	0.04883	44161.32406	866.87487	2981.14028	1457.20694	0.04882	43826.00000	856.00000	2954.00000
1465.59194	1.30911	0.04908	45239.44006	915.28086	3090.65383	1463.39731	0.04897	44853.00000	911.00000	3063.00000
1471.78629	1.30576	0.04946	46233.02845	896.81127	3139.07733	1469.58768	0.04931	45904.00000	900.00000	3119.00000
1477.98065	1.30041	0.05007	47065.83294	872.79680	3185.77134	1475.77805	0.04982	46778.00000	889.00000	3175.00000
1484.17500	1.29303	0.05093	47962.93698	861.43132	3260.30996	1481.96842	0.05061	47619.00000	851.00000	3218.00000
1490.36935	1.28512	0.05187	48831.47241	904.02395	3389.78908	1488.15879	0.05152	48563.00000	896.00000	3352.00000
1496.56371	1.27630	0.05293	49512.71620	894.96830	3468.31945	1494.34916	0.05252	49258.00000	900.00000	3440.00000
1502.75806	1.26577	0.05423	50194.99613	864.88013	3540.01420	1500.53953	0.05374	49970.00000	879.00000	3517.00000
1508.95242	1.25525	0.05556	50885.96137	905.09549	3681.96674	1506.72990	0.05511	50608.00000	869.00000	3610.00000
1515.14677	1.24500	0.05688	51605.20418	913.58727	3797.17920	1512.92027	0.05637	51382.00000	948.00000	3791.00000
1521.34113	1.23335	0.05843	52294.48600	852.65442	3858.51295	1519.11064	0.05787	52003.00000	839.00000	3800.00000
1527.53548	1.22206	0.05997	53048.12749	922.95833	4048.91983	1525.30101	0.05942	52823.00000	917.00000	4001.00000
1533.72984	1.21034	0.06161	53632.54568	893.83922	4143.14845	1531.49138	0.06099	53396.00000	899.00000	4101.00000
1539.92419	1.19837	0.06333	54301.92322	877.49213	4260.95829	1537.68175	0.06272	54078.00000	890.00000	4226.00000
1546.11855	1.18722	0.06498	54914.99226	868.61015	4380.56353	1543.87212	0.06438	54679.00000	860.00000	4325.00000
1552.31290	1.17600	0.06668	55518.70470	896.99967	4539.12993	1550.06249	0.06605	55322.00000	894.00000	4489.00000
1558.50726	1.16495	0.06840	56133.87673	896.69920	4674.95567	1556.25286	0.06778	55876.00000	893.00000	4620.00000
1564.70161	1.15467	0.07004	56712.11985	897.22589	4806.27388	1562.44323	0.06944	56559.00000	903.00000	4768.00000
1570.89597	1.14425	0.07174	57110.05848	872.05494	4906.53887	1568.63360	0.07110	56929.00000	879.00000	4864.00000
1577.09032	1.13420	0.07342	57676.03454	884.04322	5053.48641	1574.82397	0.07284	57481.00000	874.00000	4997.00000
1583.28468	1.12534	0.07493	58148.48322	901.76447	5191.31491	1581.01434	0.07437	57979.00000	901.00000	5146.00000
1589.47903	1.11660	0.07645	58521.77458	900.96157	5306.26948	1587.20471	0.07590	58407.00000	898.00000	5263.00000
1595.67339	1.10851	0.07789	58847.97749	889.36112	5403.85740	1593.39508	0.07738	58710.00000	901.00000	5374.00000
1601.86774	1.10113	0.07923	59278.08519	901.25204	5526.25154	1599.58545	0.07874	59120.00000	881.00000	5467.00000
1608.06210	1.09413	0.08051	59626.81113	919.79947	5646.57830	1605.77582	0.08004	59516.00000	933.00000	5622.00000
1614.25645	1.08743	0.08176	59929.52919	892.32390	5719.47816	1611.96619	0.08131	59807.00000	886.00000	5677.00000
1620.45081	1.08147	0.08290	60153.00374	904.78906	5816.18642	1618.15656	0.08249	60106.00000	914.00000	5797.00000
1626.64516	1.07611	0.08393	60294.89123	889.55822	5875.17547	1624.34693	0.08355	60214.00000	882.00000	5839.00000
1632.83952	1.07093	0.08493	60574.37909	908.30827	5975.88610	1630.53730	0.08456	60478.00000	912.00000	5949.00000
1639.03387	1.06641	0.08582	60657.61823	875.57252	6006.04025	1636.72767	0.08551	60664.00000	885.00000	5997.00000
1645.22823	1.06239	0.08662	60523.85726	878.38363	6044.87196	1642.91804	0.08631	60588.00000	873.00000	6027.00000
1651.42258	1.05796	0.08751	59551.79737	922.21451	6052.58113	1649.10841	0.08717	60118.00000	901.00000	6063.00000
1657.61694	1.05471	0.08816	57456.95118	932.23099	5915.68429	1655.29878	0.08798	58251.00000	943.00000	5985.00000
1663.81129	1.05273	0.08857	56565.87508	907.30956	5836.93881	1661.48915	0.08840	56609.00000	906.00000	5830.00000
1670.00565	1.05013	0.08910	55551.39375	929.29787	5795.89248	1667.67952	0.08890	56348.00000	925.00000	5852.00000
1676.20000	1.04830	0.08947	52498.57123	886.43679	5504.55298	1673.86989	0.08937	53602.00000	912.00000	5621.00000
0.00000	0.00000	0.00000	0.00000	0.00000	0.00000	1680.06026	0.08960	50470.00000	863.00000	5308.00000
0.00000	0.00000	0.00000	0.00000	0.00000	0.00000	1686.25063	0.08984	46618.00000	937.00000	5041.00000
0.00000	0.00000	0.00000	0.00000	0.00000	0.00000	1692.44100	0.08984	46618.00000	937.00000	5041.00000
