'File 伊利奶粉_1_2016一月28_1056.xls
'Part ID 伊利奶粉_1
'Scan Created 2016/1/28 10:56:31
'Instrument S1-00205
'Version 1.5.7
'Integration Time 10100 s
'Number of Scans 50
'Units Absorbance
'Thermistor 48.07
Wavelength	Absorbance	Normalized	100%	dark	Raw 1	Native Wvl	Native Norm	Native 100%	Native dark	Native 1
908.10000	0.22830	0.59115	3514.15951	877.71219	2435.22719	906.26400	0.58189	3596.00000	879.00000	2460.00000
914.29435	0.20824	0.61910	3281.25113	863.65831	2360.69065	912.45437	0.61158	3339.00000	870.00000	2380.00000
920.48871	0.18910	0.64699	3227.40662	877.32414	2397.85411	918.64474	0.63748	3216.00000	863.00000	2363.00000
926.68306	0.16948	0.67689	3307.28228	905.48228	2531.08024	924.83511	0.66947	3291.00000	910.00000	2504.00000
932.87742	0.15427	0.70101	3382.42130	864.28145	2629.62223	931.02548	0.69268	3345.00000	872.00000	2585.00000
939.07177	0.13455	0.73358	3608.15965	881.02078	2881.71885	937.21585	0.72375	3528.00000	871.00000	2794.00000
945.26613	0.11942	0.75960	3846.64039	885.69520	3134.67492	943.40622	0.75337	3789.00000	894.00000	3075.00000
951.46048	0.11083	0.77476	4004.44998	860.87297	3296.44843	949.59659	0.77052	3954.00000	860.00000	3244.00000
957.65484	0.10469	0.78580	4209.47249	887.01493	3497.82434	955.78696	0.78326	4143.00000	881.00000	3436.00000
963.84919	0.10235	0.79004	4374.85740	871.56767	3639.20316	961.97733	0.78925	4341.00000	882.00000	3612.00000
970.04355	0.10061	0.79321	4520.56130	886.05989	3769.19747	968.16770	0.79192	4456.00000	866.00000	3709.00000
976.23790	0.10257	0.78964	4717.71427	911.39747	3916.66908	974.35807	0.79297	4679.00000	926.00000	3902.00000
982.43226	0.10790	0.78000	4843.76664	857.92770	3967.21860	980.54844	0.78092	4787.00000	857.00000	3926.00000
988.62661	0.10786	0.78008	5076.97721	894.34516	4156.91444	986.73881	0.78107	5011.00000	891.00000	4109.00000
994.82097	0.11139	0.77376	5297.39601	869.00992	4295.60114	992.92918	0.77537	5222.00000	877.00000	4246.00000
1001.01532	0.11278	0.77130	5554.06756	873.41459	4483.64070	999.11955	0.77178	5480.00000	866.00000	4427.00000
1007.20968	0.11353	0.76996	5827.05497	883.56657	4689.72331	1005.30992	0.77039	5731.00000	888.00000	4619.00000
1013.40403	0.11180	0.77304	6120.28754	870.80251	4928.93105	1011.50029	0.77091	6045.00000	868.00000	4859.00000
1019.59839	0.10723	0.78121	6348.68404	901.94795	5156.97345	1017.69066	0.77924	6270.00000	893.00000	5083.00000
1025.79274	0.10544	0.78444	6618.61076	896.05363	5384.99479	1023.88103	0.78367	6540.00000	905.00000	5321.00000
1031.98710	0.10354	0.78787	6878.79036	877.64868	5605.85419	1030.07140	0.78651	6792.00000	876.00000	5529.00000
1038.18145	0.10130	0.79196	7153.19229	875.20158	5846.98005	1036.26177	0.79099	7075.00000	884.00000	5781.00000
1044.37581	0.09935	0.79551	7435.03734	854.54502	6089.51976	1042.45214	0.79405	7334.00000	852.00000	5999.00000
1050.57016	0.09684	0.80014	7778.63216	881.04291	6399.95883	1048.64251	0.79903	7678.00000	876.00000	6311.00000
1056.76452	0.09540	0.80278	8066.37003	871.22278	6647.38144	1054.83288	0.80189	7979.00000	877.00000	6572.00000
1062.95887	0.09343	0.80644	8367.94643	870.25694	6916.77203	1061.02325	0.80521	8268.00000	865.00000	6826.00000
1069.15323	0.09195	0.80919	8674.59951	877.92605	7186.85182	1067.21362	0.80867	8586.00000	882.00000	7112.00000
1075.34758	0.09083	0.81128	8958.19691	861.24829	7430.25166	1073.40399	0.81027	8863.00000	862.00000	7345.00000
1081.54194	0.08897	0.81476	9269.61857	868.88623	7713.38804	1079.59436	0.81389	9175.00000	868.00000	7629.00000
1087.73629	0.08750	0.81752	9599.77547	889.96693	8010.52935	1085.78473	0.81645	9485.00000	877.00000	7905.00000
1093.93065	0.08631	0.81978	9958.85840	903.23915	8326.70803	1091.97510	0.81954	9855.00000	911.00000	8241.00000
1100.12500	0.08663	0.81916	10287.04131	864.70017	8583.17828	1098.16547	0.81933	10175.00000	871.00000	8494.00000
1106.31935	0.08673	0.81898	10673.09117	870.26271	8898.56415	1104.35584	0.81905	10550.00000	868.00000	8798.00000
1112.51371	0.08680	0.81885	11054.17109	867.39097	9208.89260	1110.54621	0.81886	10934.00000	870.00000	9111.00000
1118.70806	0.08741	0.81770	11440.58269	866.80701	9512.91622	1116.73658	0.81839	11315.00000	864.00000	9417.00000
1124.90242	0.08961	0.81356	11853.47185	879.92340	9807.58776	1122.92695	0.81516	11719.00000	877.00000	9715.00000
1131.09677	0.09385	0.80565	12279.20991	877.48685	10063.20124	1129.11732	0.80877	12144.00000	880.00000	9990.00000
1137.29113	0.10076	0.79293	12658.45812	855.49825	10214.57907	1135.30769	0.79738	12547.00000	865.00000	10180.00000
1143.48548	0.10893	0.77817	13049.18681	852.30684	10343.35010	1141.49806	0.78294	12906.00000	845.00000	10288.00000
1149.67984	0.11684	0.76411	13533.98158	886.77209	10550.93474	1147.68843	0.76846	13382.00000	879.00000	10487.00000
1155.87419	0.12605	0.74808	13997.40073	876.37382	10691.66200	1153.87880	0.75401	13845.00000	885.00000	10657.00000
1162.06855	0.13747	0.72867	14503.46887	861.13988	10802.04029	1160.06917	0.73462	14335.00000	860.00000	10759.00000
1168.26290	0.14697	0.71290	15009.58309	885.01032	10954.57867	1166.25954	0.71766	14853.00000	877.00000	10907.00000
1174.45726	0.15647	0.69747	15471.50866	888.01740	11059.49601	1172.44991	0.70284	15322.00000	892.00000	11034.00000
1180.65161	0.16749	0.68000	15938.18293	858.48109	11112.57106	1178.64028	0.68559	15786.00000	869.00000	11096.00000
1186.84597	0.17651	0.66602	16436.20435	853.30650	11231.87914	1184.83065	0.66982	16267.00000	848.00000	11176.00000
1193.04032	0.18237	0.65710	16954.92806	876.34677	11441.46681	1191.02102	0.65978	16791.00000	872.00000	11375.00000
1199.23468	0.18701	0.65011	17462.35109	876.98642	11659.35043	1197.21139	0.65213	17291.00000	877.00000	11581.00000
1205.42903	0.18981	0.64594	17986.83670	869.01927	11926.07238	1203.40176	0.64694	17820.00000	874.00000	11837.00000
1211.62339	0.18869	0.64761	18479.84056	863.23699	12271.92058	1209.59213	0.64604	18318.00000	861.00000	12139.00000
1217.81774	0.18173	0.65806	19014.17361	874.89956	12811.77728	1215.78250	0.65382	18829.00000	873.00000	12613.00000
1224.01210	0.17189	0.67315	19594.72563	876.04482	13476.57659	1221.97287	0.66807	19406.00000	875.00000	13255.00000
1230.20645	0.16318	0.68679	20120.20026	872.48020	14091.45402	1228.16324	0.68276	19956.00000	876.00000	13903.00000
1236.40081	0.15654	0.69736	20649.23727	886.34799	14668.29260	1234.35361	0.69398	20461.00000	874.00000	14467.00000
1242.59516	0.15128	0.70586	21186.14180	892.43754	15216.93210	1240.54398	0.70347	21027.00000	904.00000	15060.00000
1248.78952	0.14782	0.71151	21639.43707	853.74756	15643.06951	1246.73435	0.70976	21481.00000	857.00000	15495.00000
1254.98387	0.14475	0.71655	22186.10389	887.90098	16149.24664	1252.92472	0.71493	21995.00000	874.00000	15974.00000
1261.17823	0.14264	0.72005	22744.98332	890.64324	16626.86666	1259.11509	0.71922	22568.00000	900.00000	16484.00000
1267.37258	0.14161	0.72176	23243.71070	844.15789	17011.14505	1265.30546	0.72116	23078.00000	857.00000	16882.00000
1273.56694	0.13964	0.72503	23813.43146	859.99157	17502.06076	1271.49583	0.72361	23605.00000	844.00000	17314.00000
1279.76129	0.13680	0.72980	24453.54449	898.95555	18088.92550	1277.68620	0.72829	24247.00000	895.00000	17902.00000
1285.95565	0.13446	0.73374	25039.29282	882.87107	18607.39609	1283.87657	0.73246	24843.00000	888.00000	18434.00000
1292.15000	0.13215	0.73765	25633.20976	874.48479	19137.79393	1290.06694	0.73631	25432.00000	877.00000	18957.00000
1298.34435	0.13006	0.74120	26275.57944	875.36170	19702.06676	1296.25731	0.74015	26049.00000	873.00000	19507.00000
1304.53871	0.12891	0.74317	26910.28272	864.72671	20220.96833	1302.44769	0.74270	26712.00000	874.00000	20064.00000
1310.73306	0.12850	0.74388	27539.76334	865.28161	20707.95951	1308.63806	0.74371	27304.00000	854.00000	20525.00000
1316.92742	0.12890	0.74319	28270.79252	884.98210	21237.80307	1314.82843	0.74372	28032.00000	890.00000	21076.00000
1323.12177	0.13061	0.74027	28955.06915	860.68820	21658.16603	1321.01880	0.74143	28719.00000	862.00000	21516.00000
1329.31613	0.13357	0.73524	29633.32179	868.03484	22017.35428	1327.20917	0.73730	29411.00000	869.00000	21913.00000
1335.51048	0.13841	0.72709	30302.79696	861.31771	22268.08158	1333.39954	0.73020	30064.00000	861.00000	22185.00000
1341.70484	0.14533	0.71560	31040.63710	883.35260	22463.78672	1339.58991	0.71997	30788.00000	873.00000	22411.00000
1347.89919	0.15489	0.70001	31710.62252	886.82909	22464.01959	1345.78028	0.70579	31498.00000	894.00000	22494.00000
1354.09355	0.16604	0.68228	32368.46417	858.22619	22356.77825	1351.97065	0.68831	32123.00000	864.00000	22380.00000
1360.28790	0.17642	0.66617	33079.41609	863.88248	22325.13971	1358.16102	0.67139	32852.00000	860.00000	22339.00000
1366.48226	0.18573	0.65204	33719.60962	862.84716	22286.50623	1364.35139	0.65682	33491.00000	867.00000	22295.00000
1372.67661	0.19474	0.63864	34419.13569	848.00380	22287.92713	1370.54176	0.64314	34178.00000	851.00000	22285.00000
1378.87097	0.20301	0.62660	34997.78982	865.89108	22252.96307	1376.73213	0.63057	34829.00000	855.00000	22278.00000
1385.06532	0.21072	0.61557	35282.55609	871.96034	22054.18936	1382.92250	0.61936	35216.00000	879.00000	22146.00000
1391.25968	0.21721	0.60644	35454.56849	868.59113	21842.91710	1389.11287	0.60914	35383.00000	859.00000	21889.00000
1397.45403	0.22304	0.59836	35619.60134	886.37628	21669.30752	1395.30324	0.60158	35583.00000	891.00000	21761.00000
1403.64839	0.23334	0.58433	35834.55471	865.31191	21299.13300	1401.49361	0.59013	35714.00000	866.00000	21431.00000
1409.84274	0.25030	0.56195	36489.35769	873.82043	20887.78779	1407.68398	0.57068	36214.00000	874.00000	21042.00000
1416.03710	0.27295	0.53340	37454.71523	877.22955	20387.69202	1413.87435	0.54375	37098.00000	872.00000	20570.00000
1422.23145	0.29860	0.50280	38501.95566	886.60375	19799.78835	1420.06472	0.51357	38137.00000	888.00000	20018.00000
1428.42581	0.32433	0.47389	39622.23895	874.12429	19235.95320	1426.25509	0.48350	39208.00000	877.00000	19410.00000
1434.62016	0.34664	0.45015	40761.26708	872.53526	18828.58925	1432.44546	0.45785	40388.00000	873.00000	18965.00000
1440.81452	0.36431	0.43220	41685.67119	872.92918	18512.37794	1438.63583	0.43782	41375.00000	872.00000	18605.00000
1447.00887	0.37673	0.42002	42697.97010	892.09592	18451.27716	1444.82620	0.42372	42303.00000	882.00000	18433.00000
1453.20323	0.38553	0.41160	43743.69350	881.19502	18523.29470	1451.01657	0.41434	43420.00000	897.00000	18516.00000
1459.39758	0.39160	0.40588	44616.30730	861.83262	18621.03063	1457.20694	0.40746	44284.00000	854.00000	18550.00000
1465.59194	0.39473	0.40296	45681.51347	893.65188	18941.43404	1463.39731	0.40387	45294.00000	891.00000	18824.00000
1471.78629	0.39679	0.40106	46691.44736	880.41136	19253.67915	1469.58768	0.40161	46358.00000	883.00000	19146.00000
1477.98065	0.39808	0.39987	47539.84378	864.96700	19528.90475	1475.77805	0.40029	47244.00000	875.00000	19436.00000
1484.17500	0.39893	0.39909	48453.02745	858.97393	19853.47545	1481.96842	0.39926	48107.00000	852.00000	19719.00000
1490.36935	0.39905	0.39898	49314.35954	885.82004	20207.73696	1488.15879	0.39900	49049.00000	881.00000	20100.00000
1496.56371	0.39861	0.39938	50001.49019	880.23876	20498.35597	1494.34916	0.39912	49741.00000	883.00000	20383.00000
1502.75806	0.39714	0.40074	50705.77350	864.52184	20837.67489	1500.53953	0.40017	50474.00000	872.00000	20721.00000
1508.95242	0.39454	0.40315	51385.78695	891.73536	21248.33443	1506.72990	0.40212	51118.00000	869.00000	21075.00000
1515.14677	0.39156	0.40592	52107.85403	893.71978	21682.61449	1512.92027	0.40504	51872.00000	917.00000	21556.00000
1521.34113	0.38856	0.40873	52815.89525	851.69957	22091.32617	1519.11064	0.40754	52530.00000	844.00000	21908.00000
1527.53548	0.38514	0.41197	53548.61369	896.26537	22587.25917	1525.30101	0.41096	53323.00000	892.00000	22439.00000
1533.72984	0.38273	0.41426	54149.95370	878.59624	22946.89453	1531.49138	0.41344	53910.00000	882.00000	22806.00000
1539.92419	0.38083	0.41608	54832.12801	868.84378	23321.68012	1537.68175	0.41555	54600.00000	876.00000	23201.00000
1546.11855	0.37963	0.41723	55451.13851	864.00141	23639.29142	1543.87212	0.41681	55220.00000	859.00000	23517.00000
1552.31290	0.37882	0.41801	56042.33834	881.37311	23938.99226	1550.06249	0.41784	55845.00000	879.00000	23846.00000
1558.50726	0.37870	0.41812	56662.34212	881.97129	24204.84712	1556.25286	0.41809	56406.00000	880.00000	24095.00000
1564.70161	0.37900	0.41783	57241.63462	881.81730	24430.82583	1562.44323	0.41803	57084.00000	885.00000	24378.00000
1570.89597	0.37948	0.41737	57652.97230	868.16681	24568.52980	1568.63360	0.41745	57470.00000	872.00000	24499.00000
1577.09032	0.37903	0.41780	58206.47218	874.43948	24827.80414	1574.82397	0.41754	58018.00000	869.00000	24731.00000
1583.28468	0.37788	0.41891	58673.40818	887.42953	25094.69659	1581.01434	0.41845	58502.00000	885.00000	24995.00000
1589.47903	0.37589	0.42083	59041.87130	888.83630	25361.52671	1587.20471	0.41998	58934.00000	888.00000	25266.00000
1595.67339	0.37291	0.42373	59358.10218	876.53006	25657.09475	1593.39508	0.42261	59218.00000	885.00000	25537.00000
1601.86774	0.36917	0.42740	59778.17203	883.72242	26055.13767	1599.58545	0.42591	59632.00000	871.00000	25898.00000
1608.06210	0.36480	0.43171	60103.05486	896.34115	26456.71349	1605.77582	0.43013	59993.00000	904.00000	26320.00000
1614.25645	0.36018	0.43634	60403.71328	879.81794	26852.43456	1611.96619	0.43453	60288.00000	876.00000	26692.00000
1620.45081	0.35539	0.44117	60606.54759	887.56155	27233.74077	1618.15656	0.43947	60563.00000	893.00000	27116.00000
1626.64516	0.35081	0.44585	60733.55595	878.59339	27564.95869	1624.34693	0.44403	60663.00000	874.00000	27422.00000
1632.83952	0.34609	0.45072	60986.21919	889.52033	27976.45982	1630.53730	0.44899	60896.00000	892.00000	27833.00000
1639.03387	0.34179	0.45521	61048.69415	866.62659	28261.68157	1636.72767	0.45352	61067.00000	874.00000	28173.00000
1645.22823	0.33747	0.45976	60863.78586	869.32764	28452.68869	1642.91804	0.45807	60949.00000	864.00000	28387.00000
1651.42258	0.33319	0.46431	59805.79968	899.77194	28249.89019	1649.10841	0.46260	60411.00000	887.00000	28423.00000
1657.61694	0.32951	0.46827	57584.63778	905.33477	27446.06926	1655.29878	0.46694	58428.00000	911.00000	27768.00000
1663.81129	0.32620	0.47185	56481.05190	890.63733	27121.82672	1661.48915	0.47040	56625.00000	891.00000	27108.00000
1670.00565	0.32259	0.47579	55048.67016	902.23167	26663.21901	1667.67952	0.47438	56028.00000	899.00000	27051.00000
1676.20000	0.31950	0.47918	51378.45954	875.98122	25077.25074	1673.86989	0.47793	52735.00000	893.00000	25670.00000
0.00000	0.00000	0.00000	0.00000	0.00000	0.00000	1680.06026	0.48143	48849.00000	859.00000	23963.00000
0.00000	0.00000	0.00000	0.00000	0.00000	0.00000	1686.25063	0.48501	44181.00000	908.00000	21896.00000
0.00000	0.00000	0.00000	0.00000	0.00000	0.00000	1692.44100	0.48501	44181.00000	908.00000	21896.00000
