'File 伊利奶粉_4_2016一月28_1057.xls
'Part ID 伊利奶粉_4
'Scan Created 2016/1/28 10:57:08
'Instrument S1-00205
'Version 1.5.7
'Integration Time 10100 s
'Number of Scans 50
'Units Absorbance
'Thermistor 48.07
Wavelength	Absorbance	Normalized	100%	dark	Raw 1	Native Wvl	Native Norm	Native 100%	Native dark	Native 1
908.10000	0.22856	0.59079	3514.15951	877.71219	2434.20284	906.26400	0.58116	3596.00000	879.00000	2458.00000
914.29435	0.20904	0.61797	3281.25113	863.65831	2358.00221	912.45437	0.61118	3339.00000	870.00000	2379.00000
920.48871	0.19051	0.64489	3227.40662	877.32414	2392.92359	918.64474	0.63493	3216.00000	863.00000	2357.00000
926.68306	0.16927	0.67723	3307.28228	905.48228	2531.86805	924.83511	0.66947	3291.00000	910.00000	2504.00000
932.87742	0.15436	0.70087	3382.42130	864.28145	2629.29943	931.02548	0.69268	3345.00000	872.00000	2585.00000
939.07177	0.13490	0.73300	3608.15965	881.02078	2880.08103	937.21585	0.72337	3528.00000	871.00000	2793.00000
945.26613	0.11958	0.75931	3846.64039	885.69520	3133.88863	943.40622	0.75268	3789.00000	894.00000	3073.00000
951.46048	0.11056	0.77525	4004.44998	860.87297	3297.93609	949.59659	0.77117	3954.00000	860.00000	3246.00000
957.65484	0.10520	0.78488	4209.47249	887.01493	3494.77960	955.78696	0.78265	4143.00000	881.00000	3434.00000
963.84919	0.10266	0.78947	4374.85740	871.56767	3637.21999	961.97733	0.78838	4341.00000	882.00000	3609.00000
970.04355	0.10067	0.79311	4520.56130	886.05989	3768.80981	968.16770	0.79192	4456.00000	866.00000	3709.00000
976.23790	0.10314	0.78860	4717.71427	911.39747	3912.74068	974.35807	0.79217	4679.00000	926.00000	3899.00000
982.43226	0.10862	0.77871	4843.76664	857.92770	3962.07094	980.54844	0.77964	4787.00000	857.00000	3921.00000
988.62661	0.10850	0.77893	5076.97721	894.34516	4152.10887	986.73881	0.77985	5011.00000	891.00000	4104.00000
994.82097	0.11211	0.77248	5297.39601	869.00992	4289.91281	992.92918	0.77422	5222.00000	877.00000	4241.00000
1001.01532	0.11359	0.76986	5554.06756	873.41459	4476.94905	999.11955	0.77026	5480.00000	866.00000	4420.00000
1007.20968	0.11430	0.76859	5827.05497	883.56657	4682.93078	1005.30992	0.76915	5731.00000	888.00000	4613.00000
1013.40403	0.11251	0.77178	6120.28754	870.80251	4922.34547	1011.50029	0.76936	6045.00000	868.00000	4851.00000
1019.59839	0.10737	0.78097	6348.68404	901.94795	5155.63459	1017.69066	0.77887	6270.00000	893.00000	5081.00000
1025.79274	0.10586	0.78369	6618.61076	896.05363	5380.70362	1023.88103	0.78314	6540.00000	905.00000	5318.00000
1031.98710	0.10406	0.78694	6878.79036	877.64868	5600.28719	1030.07140	0.78550	6792.00000	876.00000	5523.00000
1038.18145	0.10166	0.79130	7153.19229	875.20158	5842.81200	1036.26177	0.79034	7075.00000	884.00000	5777.00000
1044.37581	0.09973	0.79482	7435.03734	854.54502	6085.00273	1042.45214	0.79327	7334.00000	852.00000	5994.00000
1050.57016	0.09708	0.79968	7778.63216	881.04291	6396.81639	1048.64251	0.79859	7678.00000	876.00000	6308.00000
1056.76452	0.09568	0.80227	8066.37003	871.22278	6643.71054	1054.83288	0.80132	7979.00000	877.00000	6568.00000
1062.95887	0.09353	0.80625	8367.94643	870.25694	6915.29055	1061.02325	0.80494	8268.00000	865.00000	6824.00000
1069.15323	0.09201	0.80908	8674.59951	877.92605	7185.96841	1067.21362	0.80854	8586.00000	882.00000	7111.00000
1075.34758	0.09092	0.81112	8958.19691	861.24829	7428.91064	1073.40399	0.81015	8863.00000	862.00000	7344.00000
1081.54194	0.08909	0.81454	9269.61857	868.88623	7711.49105	1079.59436	0.81365	9175.00000	868.00000	7627.00000
1087.73629	0.08753	0.81746	9599.77547	889.96693	8009.99160	1085.78473	0.81633	9485.00000	877.00000	7904.00000
1093.93065	0.08631	0.81976	9958.85840	903.23915	8326.58390	1091.97510	0.81954	9855.00000	911.00000	8241.00000
1100.12500	0.08671	0.81900	10287.04131	864.70017	8581.67501	1098.16547	0.81922	10175.00000	871.00000	8493.00000
1106.31935	0.08682	0.81881	10673.09117	870.26271	8896.86689	1104.35584	0.81884	10550.00000	868.00000	8796.00000
1112.51371	0.08686	0.81873	11054.17109	867.39097	9207.62901	1110.54621	0.81876	10934.00000	870.00000	9110.00000
1118.70806	0.08761	0.81732	11440.58269	866.80701	9508.89874	1116.73658	0.81810	11315.00000	864.00000	9414.00000
1124.90242	0.08983	0.81316	11853.47185	879.92340	9803.23156	1122.92695	0.81470	11719.00000	877.00000	9710.00000
1131.09677	0.09403	0.80533	12279.20991	877.48685	10059.54028	1129.11732	0.80850	12144.00000	880.00000	9987.00000
1137.29113	0.10116	0.79221	12658.45812	855.49825	10206.01153	1135.30769	0.79678	12547.00000	865.00000	10173.00000
1143.48548	0.10946	0.77721	13049.18681	852.30684	10331.69135	1141.49806	0.78202	12906.00000	845.00000	10277.00000
1149.67984	0.11737	0.76318	13533.98158	886.77209	10539.18642	1147.68843	0.76750	13382.00000	879.00000	10475.00000
1155.87419	0.12664	0.74707	13997.40073	876.37382	10678.45760	1153.87880	0.75309	13845.00000	885.00000	10645.00000
1162.06855	0.13828	0.72731	14503.46887	861.13988	10783.41012	1160.06917	0.73336	14335.00000	860.00000	10742.00000
1168.26290	0.14790	0.71137	15009.58309	885.01032	10932.96576	1166.25954	0.71616	14853.00000	877.00000	10886.00000
1174.45726	0.15741	0.69597	15471.50866	888.01740	11037.60147	1172.44991	0.70132	15322.00000	892.00000	11012.00000
1180.65161	0.16845	0.67849	15938.18293	858.48109	11089.93339	1178.64028	0.68412	15786.00000	869.00000	11074.00000
1186.84597	0.17772	0.66418	16436.20435	853.30650	11203.18709	1184.83065	0.66814	16267.00000	848.00000	11150.00000
1193.04032	0.18373	0.65505	16954.92806	876.34677	11408.59281	1191.02102	0.65770	16791.00000	872.00000	11342.00000
1199.23468	0.18827	0.64823	17462.35109	876.98642	11628.07139	1197.21139	0.65024	17291.00000	877.00000	11550.00000
1205.42903	0.19110	0.64401	17986.83670	869.01927	11893.09428	1203.40176	0.64499	17820.00000	874.00000	11804.00000
1211.62339	0.18973	0.64606	18479.84056	863.23699	12244.67516	1209.59213	0.64433	18318.00000	861.00000	12109.00000
1217.81774	0.18258	0.65677	19014.17361	874.89956	12788.37530	1215.78250	0.65254	18829.00000	873.00000	12590.00000
1224.01210	0.17278	0.67176	19594.72563	876.04482	13450.62530	1221.97287	0.66667	19406.00000	875.00000	13229.00000
1230.20645	0.16402	0.68545	20120.20026	872.48020	14065.70082	1228.16324	0.68145	19956.00000	876.00000	13878.00000
1236.40081	0.15743	0.69594	20649.23727	886.34799	14640.25636	1234.35361	0.69255	20461.00000	874.00000	14439.00000
1242.59516	0.15210	0.70454	21186.14180	892.43754	15189.97960	1240.54398	0.70213	21027.00000	904.00000	15033.00000
1248.78952	0.14859	0.71024	21639.43707	853.74756	15616.69047	1246.73435	0.70845	21481.00000	857.00000	15468.00000
1254.98387	0.14547	0.71538	22186.10389	887.90098	16124.18521	1252.92472	0.71374	21995.00000	874.00000	15949.00000
1261.17823	0.14336	0.71885	22744.98332	890.64324	16600.60197	1259.11509	0.71802	22568.00000	900.00000	16458.00000
1267.37258	0.14236	0.72051	23243.71070	844.15789	16983.22724	1265.30546	0.71995	23078.00000	857.00000	16855.00000
1273.56694	0.14038	0.72380	23813.43146	859.99157	17473.88296	1271.49583	0.72233	23605.00000	844.00000	17285.00000
1279.76129	0.13746	0.72869	24453.54449	898.95555	18062.90136	1277.68620	0.72718	24247.00000	895.00000	17876.00000
1285.95565	0.13512	0.73263	25039.29282	882.87107	18580.55779	1283.87657	0.73133	24843.00000	888.00000	18407.00000
1292.15000	0.13277	0.73660	25633.20976	874.48479	19111.73480	1290.06694	0.73525	25432.00000	877.00000	18931.00000
1298.34435	0.13064	0.74021	26275.57944	875.36170	19676.92689	1296.25731	0.73912	26049.00000	873.00000	19481.00000
1304.53871	0.12947	0.74221	26910.28272	864.72671	20195.94427	1302.44769	0.74178	26712.00000	874.00000	20040.00000
1310.73306	0.12917	0.74272	27539.76334	865.28161	20677.10137	1308.63806	0.74261	27304.00000	854.00000	20496.00000
1316.92742	0.12956	0.74206	28270.79252	884.98210	21206.98546	1314.82843	0.74254	28032.00000	890.00000	21044.00000
1323.12177	0.13124	0.73919	28955.06915	860.68820	21627.77829	1321.01880	0.74039	28719.00000	862.00000	21487.00000
1329.31613	0.13432	0.73397	29633.32179	868.03484	21981.01520	1327.20917	0.73607	29411.00000	869.00000	21878.00000
1335.51048	0.13921	0.72575	30302.79696	861.31771	22228.44222	1333.39954	0.72890	30064.00000	861.00000	22147.00000
1341.70484	0.14626	0.71406	31040.63710	883.35260	22417.50634	1339.58991	0.71850	30788.00000	873.00000	22367.00000
1347.89919	0.15598	0.69826	31710.62252	886.82909	22410.06402	1345.78028	0.70412	31498.00000	894.00000	22443.00000
1354.09355	0.16731	0.68029	32368.46417	858.22619	22293.90754	1351.97065	0.68639	32123.00000	864.00000	22320.00000
1360.28790	0.17780	0.66405	33079.41609	863.88248	22256.86686	1358.16102	0.66929	32852.00000	860.00000	22272.00000
1366.48226	0.18722	0.64980	33719.60962	862.84716	22212.94906	1364.35139	0.65464	33491.00000	867.00000	22224.00000
1372.67661	0.19634	0.63630	34419.13569	848.00380	22209.37194	1370.54176	0.64080	34178.00000	851.00000	22207.00000
1378.87097	0.20465	0.62423	34997.78982	865.89108	22172.15478	1376.73213	0.62825	34829.00000	855.00000	22199.00000
1385.06532	0.21248	0.61308	35282.55609	871.96034	21968.34322	1382.92250	0.61689	35216.00000	879.00000	22061.00000
1391.25968	0.21901	0.60393	35454.56849	868.59113	21756.22528	1389.11287	0.60665	35383.00000	859.00000	21803.00000
1397.45403	0.22509	0.59554	35619.60134	886.37628	21571.44689	1395.30324	0.59893	35583.00000	891.00000	21669.00000
1403.64839	0.23589	0.58091	35834.55471	865.31191	21179.58854	1401.49361	0.58692	35714.00000	866.00000	21319.00000
1409.84274	0.25340	0.55795	36489.35769	873.82043	20745.23689	1407.68398	0.56689	36214.00000	874.00000	20908.00000
1416.03710	0.27663	0.52890	37454.71523	877.22955	20223.01254	1413.87435	0.53939	37098.00000	872.00000	20412.00000
1422.23145	0.30271	0.49807	38501.95566	886.60375	19621.98615	1420.06472	0.50890	38137.00000	888.00000	19844.00000
1428.42581	0.32878	0.46905	39622.23895	874.12429	19048.62207	1426.25509	0.47870	39208.00000	877.00000	19226.00000
1434.62016	0.35127	0.44538	40761.26708	872.53526	18638.33643	1432.44546	0.45302	40388.00000	873.00000	18774.00000
1440.81452	0.36886	0.42770	41685.67119	872.92918	18328.58804	1438.63583	0.43323	41375.00000	872.00000	18419.00000
1447.00887	0.38115	0.41577	42697.97010	892.09592	18273.63327	1444.82620	0.41938	42303.00000	882.00000	18253.00000
1453.20323	0.38981	0.40756	43743.69350	881.19502	18350.26355	1451.01657	0.41025	43420.00000	897.00000	18342.00000
1459.39758	0.39568	0.40209	44616.30730	861.83262	18455.13675	1457.20694	0.40355	44284.00000	854.00000	18380.00000
1465.59194	0.39845	0.39953	45681.51347	893.65188	18787.80841	1463.39731	0.40033	45294.00000	891.00000	18667.00000
1471.78629	0.40031	0.39782	46691.44736	880.41136	19105.25694	1469.58768	0.39831	46358.00000	883.00000	18996.00000
1477.98065	0.40141	0.39682	47539.84378	864.96700	19386.47251	1475.77805	0.39716	47244.00000	875.00000	19291.00000
1484.17500	0.40200	0.39628	48453.02745	858.97393	19719.50993	1481.96842	0.39636	48107.00000	852.00000	19582.00000
1490.36935	0.40191	0.39636	49314.35954	885.82004	20081.00380	1488.15879	0.39632	49049.00000	881.00000	19971.00000
1496.56371	0.40135	0.39687	50001.49019	880.23876	20375.07463	1494.34916	0.39658	49741.00000	883.00000	20259.00000
1502.75806	0.39971	0.39837	50705.77350	864.52184	20719.72025	1500.53953	0.39773	50474.00000	872.00000	20600.00000
1508.95242	0.39690	0.40096	51385.78695	891.73536	21138.09667	1506.72990	0.39989	51118.00000	869.00000	20963.00000
1515.14677	0.39382	0.40381	52107.85403	893.71978	21574.44458	1512.92027	0.40290	51872.00000	917.00000	21447.00000
1521.34113	0.39065	0.40677	52815.89525	851.69957	21989.28128	1519.11064	0.40551	52530.00000	844.00000	21803.00000
1527.53548	0.38710	0.41011	53548.61369	896.26537	22489.14968	1525.30101	0.40909	53323.00000	892.00000	22341.00000
1533.72984	0.38465	0.41243	54149.95370	878.59624	22849.45165	1531.49138	0.41158	53910.00000	882.00000	22707.00000
1539.92419	0.38260	0.41438	54832.12801	868.84378	23230.26163	1537.68175	0.41382	54600.00000	876.00000	23108.00000
1546.11855	0.38133	0.41559	55451.13851	864.00141	23550.10042	1543.87212	0.41515	55220.00000	859.00000	23427.00000
1552.31290	0.38047	0.41642	56042.33834	881.37311	23851.22127	1550.06249	0.41624	55845.00000	879.00000	23758.00000
1558.50726	0.38030	0.41658	56662.34212	881.97129	24119.19094	1556.25286	0.41653	56406.00000	880.00000	24008.00000
1564.70161	0.38051	0.41638	57241.63462	881.81730	24348.68568	1562.44323	0.41656	57084.00000	885.00000	24295.00000
1570.89597	0.38090	0.41601	57652.97230	868.16681	24491.25386	1568.63360	0.41604	57470.00000	872.00000	24419.00000
1577.09032	0.38035	0.41653	58206.47218	874.43948	24755.07595	1574.82397	0.41626	58018.00000	869.00000	24658.00000
1583.28468	0.37916	0.41768	58673.40818	887.42953	25023.39551	1581.01434	0.41719	58502.00000	885.00000	24922.00000
1589.47903	0.37705	0.41971	59041.87130	888.83630	25295.99089	1587.20471	0.41882	58934.00000	888.00000	25199.00000
1595.67339	0.37405	0.42262	59358.10218	876.53006	25591.88130	1593.39508	0.42149	59218.00000	885.00000	25472.00000
1601.86774	0.37023	0.42636	59778.17203	883.72242	25993.78595	1599.58545	0.42482	59632.00000	871.00000	25834.00000
1608.06210	0.36577	0.43076	60103.05486	896.34115	26399.92662	1605.77582	0.42917	59993.00000	904.00000	26263.00000
1614.25645	0.36114	0.43537	60403.71328	879.81794	26794.85826	1611.96619	0.43355	60288.00000	876.00000	26634.00000
1620.45081	0.35631	0.44024	60606.54759	887.56155	27177.92225	1618.15656	0.43853	60563.00000	893.00000	27060.00000
1626.64516	0.35172	0.44492	60733.55595	878.59339	27509.36078	1624.34693	0.44309	60663.00000	874.00000	27366.00000
1632.83952	0.34698	0.44980	60986.21919	889.52033	27920.99143	1630.53730	0.44807	60896.00000	892.00000	27778.00000
1639.03387	0.34271	0.45425	61048.69415	866.62659	28203.99645	1636.72767	0.45258	61067.00000	874.00000	28116.00000
1645.22823	0.33838	0.45880	60863.78586	869.32764	28394.96282	1642.91804	0.45710	60949.00000	864.00000	28329.00000
1651.42258	0.33414	0.46330	59805.79968	899.77194	28190.61958	1649.10841	0.46163	60411.00000	887.00000	28365.00000
1657.61694	0.33045	0.46725	57584.63778	905.33477	27388.37549	1655.29878	0.46590	58428.00000	911.00000	27708.00000
1663.81129	0.32707	0.47091	56481.05190	890.63733	27069.49054	1661.48915	0.46944	56625.00000	891.00000	27055.00000
1670.00565	0.32343	0.47487	55048.67016	902.23167	26613.46666	1667.67952	0.47344	56028.00000	899.00000	26999.00000
1676.20000	0.32019	0.47842	51378.45954	875.98122	25039.10759	1673.86989	0.47710	52735.00000	893.00000	25627.00000
0.00000	0.00000	0.00000	0.00000	0.00000	0.00000	1680.06026	0.48083	48849.00000	859.00000	23934.00000
0.00000	0.00000	0.00000	0.00000	0.00000	0.00000	1686.25063	0.48467	44181.00000	908.00000	21881.00000
0.00000	0.00000	0.00000	0.00000	0.00000	0.00000	1692.44100	0.48467	44181.00000	908.00000	21881.00000
