'File 伊利奶粉_5_2016一月28_1057.xls
'Part ID 伊利奶粉_5
'Scan Created 2016/1/28 10:57:12
'Instrument S1-00205
'Version 1.5.7
'Integration Time 10100 s
'Number of Scans 50
'Units Absorbance
'Thermistor 48.07
Wavelength	Absorbance	Normalized	100%	dark	Raw 1	Native Wvl	Native Norm	Native 100%	Native dark	Native 1
908.10000	0.22976	0.58916	3514.15951	877.71219	2430.07139	906.26400	0.58042	3596.00000	879.00000	2456.00000
914.29435	0.21028	0.61620	3281.25113	863.65831	2353.64643	912.45437	0.60875	3339.00000	870.00000	2373.00000
920.48871	0.19006	0.64556	3227.40662	877.32414	2394.54772	918.64474	0.63536	3216.00000	863.00000	2358.00000
926.68306	0.17004	0.67602	3307.28228	905.48228	2528.94936	924.83511	0.66905	3291.00000	910.00000	2503.00000
932.87742	0.15578	0.69859	3382.42130	864.28145	2623.57340	931.02548	0.69025	3345.00000	872.00000	2579.00000
939.07177	0.13535	0.73223	3608.15965	881.02078	2877.99469	937.21585	0.72224	3528.00000	871.00000	2790.00000
945.26613	0.12014	0.75833	3846.64039	885.69520	3130.96061	943.40622	0.75199	3789.00000	894.00000	3071.00000
951.46048	0.11143	0.77370	4004.44998	860.87297	3293.09229	949.59659	0.76955	3954.00000	860.00000	3241.00000
957.65484	0.10560	0.78415	4209.47249	887.01493	3492.35151	955.78696	0.78173	4143.00000	881.00000	3431.00000
963.84919	0.10333	0.78826	4374.85740	871.56767	3632.98127	961.97733	0.78751	4341.00000	882.00000	3606.00000
970.04355	0.10174	0.79116	4520.56130	886.05989	3761.74334	968.16770	0.78997	4456.00000	866.00000	3702.00000
976.23790	0.10369	0.78761	4717.71427	911.39747	3908.94633	974.35807	0.79083	4679.00000	926.00000	3894.00000
982.43226	0.10892	0.77819	4843.76664	857.92770	3959.97700	980.54844	0.77913	4787.00000	857.00000	3919.00000
988.62661	0.10919	0.77769	5076.97721	894.34516	4146.91060	986.73881	0.77888	5011.00000	891.00000	4100.00000
994.82097	0.11298	0.77094	5297.39601	869.00992	4283.11849	992.92918	0.77261	5222.00000	877.00000	4234.00000
1001.01532	0.11410	0.76895	5554.06756	873.41459	4472.66982	999.11955	0.76918	5480.00000	866.00000	4415.00000
1007.20968	0.11459	0.76809	5827.05497	883.56657	4680.45936	1005.30992	0.76853	5731.00000	888.00000	4610.00000
1013.40403	0.11300	0.77091	6120.28754	870.80251	4917.72360	1011.50029	0.76879	6045.00000	868.00000	4848.00000
1019.59839	0.10793	0.77995	6348.68404	901.94795	5150.17910	1017.69066	0.77757	6270.00000	893.00000	5074.00000
1025.79274	0.10599	0.78345	6618.61076	896.05363	5379.26161	1023.88103	0.78296	6540.00000	905.00000	5317.00000
1031.98710	0.10456	0.78604	6878.79036	877.64868	5594.94003	1030.07140	0.78465	6792.00000	876.00000	5518.00000
1038.18145	0.10198	0.79071	7153.19229	875.20158	5839.11896	1036.26177	0.78969	7075.00000	884.00000	5773.00000
1044.37581	0.10009	0.79417	7435.03734	854.54502	6080.76300	1042.45214	0.79266	7334.00000	852.00000	5990.00000
1050.57016	0.09752	0.79888	7778.63216	881.04291	6391.27509	1048.64251	0.79785	7678.00000	876.00000	6303.00000
1056.76452	0.09609	0.80152	8066.37003	871.22278	6638.33990	1054.83288	0.80048	7979.00000	877.00000	6562.00000
1062.95887	0.09384	0.80567	8367.94643	870.25694	6910.91390	1061.02325	0.80440	8268.00000	865.00000	6820.00000
1069.15323	0.09243	0.80830	8674.59951	877.92605	7179.88512	1067.21362	0.80776	8586.00000	882.00000	7105.00000
1075.34758	0.09121	0.81057	8958.19691	861.24829	7424.47413	1073.40399	0.80952	8863.00000	862.00000	7339.00000
1081.54194	0.08937	0.81402	9269.61857	868.88623	7707.10984	1079.59436	0.81317	9175.00000	868.00000	7623.00000
1087.73629	0.08795	0.81668	9599.77547	889.96693	8003.20920	1085.78473	0.81564	9485.00000	877.00000	7898.00000
1093.93065	0.08679	0.81886	9958.85840	903.23915	8318.37525	1091.97510	0.81865	9855.00000	911.00000	8233.00000
1100.12500	0.08715	0.81818	10287.04131	864.70017	8573.96601	1098.16547	0.81836	10175.00000	871.00000	8485.00000
1106.31935	0.08718	0.81812	10673.09117	870.26271	8890.09886	1104.35584	0.81812	10550.00000	868.00000	8789.00000
1112.51371	0.08725	0.81799	11054.17109	867.39097	9200.05797	1110.54621	0.81806	10934.00000	870.00000	9103.00000
1118.70806	0.08796	0.81665	11440.58269	866.80701	9501.85708	1116.73658	0.81734	11315.00000	864.00000	9406.00000
1124.90242	0.09009	0.81266	11853.47185	879.92340	9797.77359	1122.92695	0.81424	11719.00000	877.00000	9705.00000
1131.09677	0.09444	0.80457	12279.20991	877.48685	10050.83735	1129.11732	0.80779	12144.00000	880.00000	9979.00000
1137.29113	0.10158	0.79145	12658.45812	855.49825	10197.05961	1135.30769	0.79601	12547.00000	865.00000	10164.00000
1143.48548	0.10978	0.77664	13049.18681	852.30684	10324.78822	1141.49806	0.78136	12906.00000	845.00000	10269.00000
1149.67984	0.11771	0.76259	13533.98158	886.77209	10531.68064	1147.68843	0.76702	13382.00000	879.00000	10469.00000
1155.87419	0.12711	0.74626	13997.40073	876.37382	10667.81444	1153.87880	0.75224	13845.00000	885.00000	10634.00000
1162.06855	0.13862	0.72674	14503.46887	861.13988	10775.68349	1160.06917	0.73276	14335.00000	860.00000	10734.00000
1168.26290	0.14822	0.71085	15009.58309	885.01032	10925.61779	1166.25954	0.71558	14853.00000	877.00000	10878.00000
1174.45726	0.15779	0.69537	15471.50866	888.01740	11028.72936	1172.44991	0.70083	15322.00000	892.00000	11005.00000
1180.65161	0.16899	0.67765	15938.18293	858.48109	11077.27791	1178.64028	0.68325	15786.00000	869.00000	11061.00000
1186.84597	0.17804	0.66369	16436.20435	853.30650	11195.49370	1184.83065	0.66755	16267.00000	848.00000	11141.00000
1193.04032	0.18403	0.65459	16954.92806	876.34677	11401.17348	1191.02102	0.65726	16791.00000	872.00000	11335.00000
1199.23468	0.18867	0.64764	17462.35109	876.98642	11618.30074	1197.21139	0.64969	17291.00000	877.00000	11541.00000
1205.42903	0.19155	0.64335	17986.83670	869.01927	11881.70952	1203.40176	0.64434	17820.00000	874.00000	11793.00000
1211.62339	0.19020	0.64536	18479.84056	863.23699	12232.36011	1209.59213	0.64364	18318.00000	861.00000	12097.00000
1217.81774	0.18299	0.65617	19014.17361	874.89956	12777.39706	1215.78250	0.65187	18829.00000	873.00000	12578.00000
1224.01210	0.17318	0.67115	19594.72563	876.04482	13439.15130	1221.97287	0.66613	19406.00000	875.00000	13219.00000
1230.20645	0.16451	0.68468	20120.20026	872.48020	14050.83111	1228.16324	0.68066	19956.00000	876.00000	13863.00000
1236.40081	0.15784	0.69528	20649.23727	886.34799	14627.16979	1234.35361	0.69189	20461.00000	874.00000	14426.00000
1242.59516	0.15251	0.70387	21186.14180	892.43754	15176.38403	1240.54398	0.70144	21027.00000	904.00000	15019.00000
1248.78952	0.14901	0.70957	21639.43707	853.74756	15602.59790	1246.73435	0.70782	21481.00000	857.00000	15455.00000
1254.98387	0.14589	0.71467	22186.10389	887.90098	16109.24090	1252.92472	0.71299	21995.00000	874.00000	15933.00000
1261.17823	0.14370	0.71829	22744.98332	890.64324	16588.31596	1259.11509	0.71746	22568.00000	900.00000	16446.00000
1267.37258	0.14272	0.71990	23243.71070	844.15789	16969.68467	1265.30546	0.71932	23078.00000	857.00000	16841.00000
1273.56694	0.14071	0.72326	23813.43146	859.99157	17461.37937	1271.49583	0.72180	23605.00000	844.00000	17273.00000
1279.76129	0.13780	0.72812	24453.54449	898.95555	18049.41468	1277.68620	0.72658	24247.00000	895.00000	17862.00000
1285.95565	0.13542	0.73211	25039.29282	882.87107	18568.01734	1283.87657	0.73083	24843.00000	888.00000	18395.00000
1292.15000	0.13315	0.73596	25633.20976	874.48479	19095.90811	1290.06694	0.73464	25432.00000	877.00000	18916.00000
1298.34435	0.13106	0.73951	26275.57944	875.36170	19659.02829	1296.25731	0.73844	26049.00000	873.00000	19464.00000
1304.53871	0.12989	0.74150	26910.28272	864.72671	20177.51425	1302.44769	0.74104	26712.00000	874.00000	20021.00000
1310.73306	0.12950	0.74216	27539.76334	865.28161	20662.17849	1308.63806	0.74200	27304.00000	854.00000	20480.00000
1316.92742	0.12991	0.74146	28270.79252	884.98210	21190.32031	1314.82843	0.74199	28032.00000	890.00000	21029.00000
1323.12177	0.13167	0.73847	28955.06915	860.68820	21607.69044	1321.01880	0.73967	28719.00000	862.00000	21467.00000
1329.31613	0.13472	0.73330	29633.32179	868.03484	21961.72160	1327.20917	0.73541	29411.00000	869.00000	21859.00000
1335.51048	0.13961	0.72509	30302.79696	861.31771	22209.20768	1333.39954	0.72821	30064.00000	861.00000	22127.00000
1341.70484	0.14665	0.71343	31040.63710	883.35260	22398.48879	1339.58991	0.71790	30788.00000	873.00000	22349.00000
1347.89919	0.15639	0.69761	31710.62252	886.82909	22390.07255	1345.78028	0.70344	31498.00000	894.00000	22422.00000
1354.09355	0.16765	0.67974	32368.46417	858.22619	22276.81812	1351.97065	0.68585	32123.00000	864.00000	22303.00000
1360.28790	0.17824	0.66337	33079.41609	863.88248	22235.05135	1358.16102	0.66867	32852.00000	860.00000	22252.00000
1366.48226	0.18766	0.64914	33719.60962	862.84716	22191.44573	1364.35139	0.65394	33491.00000	867.00000	22201.00000
1372.67661	0.19670	0.63577	34419.13569	848.00380	22191.54109	1370.54176	0.64026	34178.00000	851.00000	22189.00000
1378.87097	0.20504	0.62368	34997.78982	865.89108	22153.30431	1376.73213	0.62769	34829.00000	855.00000	22180.00000
1385.06532	0.21286	0.61255	35282.55609	871.96034	21950.12720	1382.92250	0.61636	35216.00000	879.00000	22043.00000
1391.25968	0.21940	0.60339	35454.56849	868.59113	21737.38666	1389.11287	0.60610	35383.00000	859.00000	21784.00000
1397.45403	0.22547	0.59502	35619.60134	886.37628	21553.57284	1395.30324	0.59841	35583.00000	891.00000	21651.00000
1403.64839	0.23632	0.58033	35834.55471	865.31191	21159.19570	1401.49361	0.58638	35714.00000	866.00000	21300.00000
1409.84274	0.25387	0.55736	36489.35769	873.82043	20724.16072	1407.68398	0.56627	36214.00000	874.00000	20886.00000
1416.03710	0.27701	0.52843	37454.71523	877.22955	20205.88962	1413.87435	0.53889	37098.00000	872.00000	20394.00000
1422.23145	0.30311	0.49762	38501.95566	886.60375	19604.73544	1420.06472	0.50844	38137.00000	888.00000	19827.00000
1428.42581	0.32922	0.46857	39622.23895	874.12429	19030.09667	1426.25509	0.47823	39208.00000	877.00000	19208.00000
1434.62016	0.35173	0.44491	40761.26708	872.53526	18619.67242	1432.44546	0.45254	40388.00000	873.00000	18755.00000
1440.81452	0.36932	0.42725	41685.67119	872.92918	18310.33667	1438.63583	0.43278	41375.00000	872.00000	18401.00000
1447.00887	0.38162	0.41532	42697.97010	892.09592	18254.73361	1444.82620	0.41892	42303.00000	882.00000	18234.00000
1453.20323	0.39024	0.40715	43743.69350	881.19502	18332.77343	1451.01657	0.40983	43420.00000	897.00000	18324.00000
1459.39758	0.39610	0.40170	44616.30730	861.83262	18438.02715	1457.20694	0.40315	44284.00000	854.00000	18363.00000
1465.59194	0.39890	0.39912	45681.51347	893.65188	18769.07213	1463.39731	0.39993	45294.00000	891.00000	18649.00000
1471.78629	0.40073	0.39743	46691.44736	880.41136	19087.41056	1469.58768	0.39789	46358.00000	883.00000	18977.00000
1477.98065	0.40174	0.39652	47539.84378	864.96700	19372.32673	1475.77805	0.39684	47244.00000	875.00000	19276.00000
1484.17500	0.40233	0.39598	48453.02745	858.97393	19705.17877	1481.96842	0.39606	48107.00000	852.00000	19568.00000
1490.36935	0.40225	0.39605	49314.35954	885.82004	20065.84669	1488.15879	0.39601	49049.00000	881.00000	19956.00000
1496.56371	0.40168	0.39657	50001.49019	880.23876	20360.30102	1494.34916	0.39627	49741.00000	883.00000	20244.00000
1502.75806	0.40006	0.39805	50705.77350	864.52184	20703.87861	1500.53953	0.39742	50474.00000	872.00000	20585.00000
1508.95242	0.39725	0.40064	51385.78695	891.73536	21121.59322	1506.72990	0.39955	51118.00000	869.00000	20946.00000
1515.14677	0.39413	0.40352	52107.85403	893.71978	21559.52417	1512.92027	0.40261	51872.00000	917.00000	21432.00000
1521.34113	0.39100	0.40645	52815.89525	851.69957	21972.51802	1519.11064	0.40520	52530.00000	844.00000	21787.00000
1527.53548	0.38743	0.40980	53548.61369	896.26537	22473.15109	1525.30101	0.40877	53323.00000	892.00000	22324.00000
1533.72984	0.38492	0.41217	54149.95370	878.59624	22835.61027	1531.49138	0.41131	53910.00000	882.00000	22693.00000
1539.92419	0.38286	0.41414	54832.12801	868.84378	23216.89159	1537.68175	0.41356	54600.00000	876.00000	23094.00000
1546.11855	0.38161	0.41533	55451.13851	864.00141	23535.61407	1543.87212	0.41491	55220.00000	859.00000	23414.00000
1552.31290	0.38078	0.41612	56042.33834	881.37311	23834.86975	1550.06249	0.41593	55845.00000	879.00000	23741.00000
1558.50726	0.38056	0.41633	56662.34212	881.97129	24105.24217	1556.25286	0.41627	56406.00000	880.00000	23994.00000
1564.70161	0.38079	0.41611	57241.63462	881.81730	24333.66536	1562.44323	0.41629	57084.00000	885.00000	24280.00000
1570.89597	0.38119	0.41573	57652.97230	868.16681	24475.49090	1568.63360	0.41577	57470.00000	872.00000	24404.00000
1577.09032	0.38061	0.41629	58206.47218	874.43948	24740.99660	1574.82397	0.41598	58018.00000	869.00000	24642.00000
1583.28468	0.37937	0.41747	58673.40818	887.42953	25011.54431	1581.01434	0.41699	58502.00000	885.00000	24911.00000
1589.47903	0.37733	0.41944	59041.87130	888.83630	25280.63051	1587.20471	0.41856	58934.00000	888.00000	25184.00000
1595.67339	0.37429	0.42239	59358.10218	876.53006	25578.64820	1593.39508	0.42125	59218.00000	885.00000	25458.00000
1601.86774	0.37046	0.42613	59778.17203	883.72242	25980.13548	1599.58545	0.42460	59632.00000	871.00000	25821.00000
1608.06210	0.36603	0.43050	60103.05486	896.34115	26384.63132	1605.77582	0.42891	59993.00000	904.00000	26248.00000
1614.25645	0.36143	0.43508	60403.71328	879.81794	26777.67372	1611.96619	0.43328	60288.00000	876.00000	26618.00000
1620.45081	0.35658	0.43996	60606.54759	887.56155	27161.57380	1618.15656	0.43823	60563.00000	893.00000	27042.00000
1626.64516	0.35197	0.44466	60733.55595	878.59339	27493.81863	1624.34693	0.44286	60663.00000	874.00000	27352.00000
1632.83952	0.34732	0.44945	60986.21919	889.52033	27899.96058	1630.53730	0.44774	60896.00000	892.00000	27758.00000
1639.03387	0.34300	0.45394	61048.69415	866.62659	28185.30966	1636.72767	0.45225	61067.00000	874.00000	28096.00000
1645.22823	0.33865	0.45852	60863.78586	869.32764	28378.08474	1642.91804	0.45682	60949.00000	864.00000	28312.00000
1651.42258	0.33436	0.46307	59805.79968	899.77194	28176.77515	1649.10841	0.46136	60411.00000	887.00000	28349.00000
1657.61694	0.33065	0.46704	57584.63778	905.33477	27376.35506	1655.29878	0.46571	58428.00000	911.00000	27697.00000
1663.81129	0.32731	0.47064	56481.05190	890.63733	27054.53859	1661.48915	0.46918	56625.00000	891.00000	27040.00000
1670.00565	0.32363	0.47464	55048.67016	902.23167	26601.21146	1667.67952	0.47320	56028.00000	899.00000	26986.00000
1676.20000	0.32041	0.47818	51378.45954	875.98122	25027.03716	1673.86989	0.47687	52735.00000	893.00000	25615.00000
0.00000	0.00000	0.00000	0.00000	0.00000	0.00000	1680.06026	0.48058	48849.00000	859.00000	23922.00000
0.00000	0.00000	0.00000	0.00000	0.00000	0.00000	1686.25063	0.48441	44181.00000	908.00000	21870.00000
0.00000	0.00000	0.00000	0.00000	0.00000	0.00000	1692.44100	0.48441	44181.00000	908.00000	21870.00000
