'File 伊利奶粉_3_2016一月28_1057.xls
'Part ID 伊利奶粉_3
'Scan Created 2016/1/28 10:57:04
'Instrument S1-00205
'Version 1.5.7
'Integration Time 10100 s
'Number of Scans 50
'Units Absorbance
'Thermistor 48.07
Wavelength	Absorbance	Normalized	100%	dark	Raw 1	Native Wvl	Native Norm	Native 100%	Native dark	Native 1
908.10000	0.22925	0.58986	3514.15951	877.71219	2431.80270	906.26400	0.58042	3596.00000	879.00000	2456.00000
914.29435	0.20926	0.61764	3281.25113	863.65831	2357.18449	912.45437	0.61037	3339.00000	870.00000	2377.00000
920.48871	0.18994	0.64575	3227.40662	877.32414	2394.95894	918.64474	0.63578	3216.00000	863.00000	2359.00000
926.68306	0.16952	0.67682	3307.28228	905.48228	2530.88816	924.83511	0.66947	3291.00000	910.00000	2504.00000
932.87742	0.15476	0.70023	3382.42130	864.28145	2627.70994	931.02548	0.69187	3345.00000	872.00000	2583.00000
939.07177	0.13485	0.73308	3608.15965	881.02078	2880.30737	937.21585	0.72337	3528.00000	871.00000	2793.00000
945.26613	0.12000	0.75858	3846.64039	885.69520	3131.68615	943.40622	0.75233	3789.00000	894.00000	3072.00000
951.46048	0.11116	0.77417	4004.44998	860.87297	3294.59182	949.59659	0.76988	3954.00000	860.00000	3242.00000
957.65484	0.10537	0.78456	4209.47249	887.01493	3493.69247	955.78696	0.78234	4143.00000	881.00000	3433.00000
963.84919	0.10323	0.78843	4374.85740	871.56767	3633.61400	961.97733	0.78751	4341.00000	882.00000	3606.00000
970.04355	0.10126	0.79203	4520.56130	886.05989	3764.90276	968.16770	0.79081	4456.00000	866.00000	3705.00000
976.23790	0.10347	0.78801	4717.71427	911.39747	3910.50065	974.35807	0.79137	4679.00000	926.00000	3896.00000
982.43226	0.10879	0.77841	4843.76664	857.92770	3960.83455	980.54844	0.77939	4787.00000	857.00000	3920.00000
988.62661	0.10872	0.77855	5076.97721	894.34516	4150.54276	986.73881	0.77937	5011.00000	891.00000	4102.00000
994.82097	0.11210	0.77251	5297.39601	869.00992	4289.99594	992.92918	0.77422	5222.00000	877.00000	4241.00000
1001.01532	0.11378	0.76952	5554.06756	873.41459	4475.34199	999.11955	0.77005	5480.00000	866.00000	4419.00000
1007.20968	0.11447	0.76830	5827.05497	883.56657	4681.49760	1005.30992	0.76874	5731.00000	888.00000	4611.00000
1013.40403	0.11275	0.77135	6120.28754	870.80251	4920.04575	1011.50029	0.76917	6045.00000	868.00000	4850.00000
1019.59839	0.10780	0.78019	6348.68404	901.94795	5151.45984	1017.69066	0.77794	6270.00000	893.00000	5076.00000
1025.79274	0.10596	0.78350	6618.61076	896.05363	5379.57398	1023.88103	0.78296	6540.00000	905.00000	5317.00000
1031.98710	0.10433	0.78645	6878.79036	877.64868	5597.40940	1030.07140	0.78499	6792.00000	876.00000	5520.00000
1038.18145	0.10169	0.79124	7153.19229	875.20158	5842.42637	1036.26177	0.79018	7075.00000	884.00000	5776.00000
1044.37581	0.09993	0.79446	7435.03734	854.54502	6082.64277	1042.45214	0.79312	7334.00000	852.00000	5993.00000
1050.57016	0.09746	0.79899	7778.63216	881.04291	6392.05468	1048.64251	0.79785	7678.00000	876.00000	6303.00000
1056.76452	0.09591	0.80185	8066.37003	871.22278	6640.69485	1054.83288	0.80090	7979.00000	877.00000	6565.00000
1062.95887	0.09398	0.80541	8367.94643	870.25694	6909.03388	1061.02325	0.80427	8268.00000	865.00000	6819.00000
1069.15323	0.09254	0.80808	8674.59951	877.92605	7178.21259	1067.21362	0.80750	8586.00000	882.00000	7103.00000
1075.34758	0.09127	0.81045	8958.19691	861.24829	7423.54217	1073.40399	0.80940	8863.00000	862.00000	7338.00000
1081.54194	0.08942	0.81391	9269.61857	868.88623	7706.21795	1079.59436	0.81305	9175.00000	868.00000	7622.00000
1087.73629	0.08790	0.81676	9599.77547	889.96693	8003.95112	1085.78473	0.81564	9485.00000	877.00000	7898.00000
1093.93065	0.08668	0.81907	9958.85840	903.23915	8320.30868	1091.97510	0.81887	9855.00000	911.00000	8235.00000
1100.12500	0.08711	0.81826	10287.04131	864.70017	8574.66407	1098.16547	0.81847	10175.00000	871.00000	8486.00000
1106.31935	0.08710	0.81829	10673.09117	870.26271	8891.75795	1104.35584	0.81822	10550.00000	868.00000	8790.00000
1112.51371	0.08710	0.81828	11054.17109	867.39097	9203.03861	1110.54621	0.81836	10934.00000	870.00000	9106.00000
1118.70806	0.08800	0.81658	11440.58269	866.80701	9501.12229	1116.73658	0.81743	11315.00000	864.00000	9407.00000
1124.90242	0.09019	0.81247	11853.47185	879.92340	9795.71760	1122.92695	0.81396	11719.00000	877.00000	9702.00000
1131.09677	0.09439	0.80466	12279.20991	877.48685	10051.85304	1129.11732	0.80788	12144.00000	880.00000	9980.00000
1137.29113	0.10144	0.79169	12658.45812	855.49825	10199.95897	1135.30769	0.79610	12547.00000	865.00000	10165.00000
1143.48548	0.10958	0.77699	13049.18681	852.30684	10328.95726	1141.49806	0.78186	12906.00000	845.00000	10275.00000
1149.67984	0.11773	0.76255	13533.98158	886.77209	10531.26093	1147.68843	0.76694	13382.00000	879.00000	10468.00000
1155.87419	0.12690	0.74662	13997.40073	876.37382	10672.55943	1153.87880	0.75255	13845.00000	885.00000	10638.00000
1162.06855	0.13845	0.72703	14503.46887	861.13988	10779.56412	1160.06917	0.73306	14335.00000	860.00000	10738.00000
1168.26290	0.14806	0.71112	15009.58309	885.01032	10929.34940	1166.25954	0.71587	14853.00000	877.00000	10882.00000
1174.45726	0.15756	0.69573	15471.50866	888.01740	11034.06098	1172.44991	0.70111	15322.00000	892.00000	11009.00000
1180.65161	0.16866	0.67817	15938.18293	858.48109	11085.03109	1178.64028	0.68378	15786.00000	869.00000	11069.00000
1186.84597	0.17779	0.66407	16436.20435	853.30650	11201.47030	1184.83065	0.66794	16267.00000	848.00000	11147.00000
1193.04032	0.18383	0.65489	16954.92806	876.34677	11406.02260	1191.02102	0.65764	16791.00000	872.00000	11341.00000
1199.23468	0.18850	0.64789	17462.35109	876.98642	11622.41893	1197.21139	0.64987	17291.00000	877.00000	11544.00000
1205.42903	0.19121	0.64386	17986.83670	869.01927	11890.46196	1203.40176	0.64481	17820.00000	874.00000	11801.00000
1211.62339	0.18992	0.64578	18479.84056	863.23699	12239.63633	1209.59213	0.64410	18318.00000	861.00000	12105.00000
1217.81774	0.18278	0.65648	19014.17361	874.89956	12783.06541	1215.78250	0.65221	18829.00000	873.00000	12584.00000
1224.01210	0.17295	0.67151	19594.72563	876.04482	13445.88063	1221.97287	0.66645	19406.00000	875.00000	13225.00000
1230.20645	0.16425	0.68509	20120.20026	872.48020	14058.69397	1228.16324	0.68108	19956.00000	876.00000	13871.00000
1236.40081	0.15762	0.69563	20649.23727	886.34799	14634.14115	1234.35361	0.69224	20461.00000	874.00000	14433.00000
1242.59516	0.15231	0.70419	21186.14180	892.43754	15182.86258	1240.54398	0.70178	21027.00000	904.00000	15026.00000
1248.78952	0.14887	0.70979	21639.43707	853.74756	15607.17384	1246.73435	0.70806	21481.00000	857.00000	15460.00000
1254.98387	0.14579	0.71484	22186.10389	887.90098	16112.76508	1252.92472	0.71318	21995.00000	874.00000	15937.00000
1261.17823	0.14361	0.71845	22744.98332	890.64324	16591.75974	1259.11509	0.71760	22568.00000	900.00000	16449.00000
1267.37258	0.14258	0.72015	23243.71070	844.15789	16975.23859	1265.30546	0.71954	23078.00000	857.00000	16846.00000
1273.56694	0.14055	0.72352	23813.43146	859.99157	17467.38936	1271.49583	0.72207	23605.00000	844.00000	17279.00000
1279.76129	0.13764	0.72838	24453.54449	898.95555	18055.52553	1277.68620	0.72683	24247.00000	895.00000	17868.00000
1285.95565	0.13529	0.73234	25039.29282	882.87107	18573.52524	1283.87657	0.73108	24843.00000	888.00000	18401.00000
1292.15000	0.13301	0.73619	25633.20976	874.48479	19101.57271	1290.06694	0.73484	25432.00000	877.00000	18921.00000
1298.34435	0.13090	0.73977	26275.57944	875.36170	19665.62350	1296.25731	0.73872	26049.00000	873.00000	19471.00000
1304.53871	0.12978	0.74169	26910.28272	864.72671	20182.33313	1302.44769	0.74123	26712.00000	874.00000	20026.00000
1310.73306	0.12940	0.74234	27539.76334	865.28161	20666.85057	1308.63806	0.74219	27304.00000	854.00000	20485.00000
1316.92742	0.12982	0.74161	28270.79252	884.98210	21194.61016	1314.82843	0.74213	28032.00000	890.00000	21033.00000
1323.12177	0.13152	0.73873	28955.06915	860.68820	21614.79677	1321.01880	0.73989	28719.00000	862.00000	21473.00000
1329.31613	0.13457	0.73355	29633.32179	868.03484	21968.88374	1327.20917	0.73569	29411.00000	869.00000	21867.00000
1335.51048	0.13951	0.72526	30302.79696	861.31771	22214.08700	1333.39954	0.72838	30064.00000	861.00000	22132.00000
1341.70484	0.14647	0.71373	31040.63710	883.35260	22407.41750	1339.58991	0.71813	30788.00000	873.00000	22356.00000
1347.89919	0.15618	0.69794	31710.62252	886.82909	22399.96587	1345.78028	0.70380	31498.00000	894.00000	22433.00000
1354.09355	0.16746	0.68005	32368.46417	858.22619	22286.56555	1351.97065	0.68611	32123.00000	864.00000	22311.00000
1360.28790	0.17792	0.66387	33079.41609	863.88248	22251.12971	1358.16102	0.66914	32852.00000	860.00000	22267.00000
1366.48226	0.18738	0.64956	33719.60962	862.84716	22205.27622	1364.35139	0.65440	33491.00000	867.00000	22216.00000
1372.67661	0.19646	0.63612	34419.13569	848.00380	22203.26131	1370.54176	0.64062	34178.00000	851.00000	22201.00000
1378.87097	0.20474	0.62411	34997.78982	865.89108	22167.91535	1376.73213	0.62807	34829.00000	855.00000	22193.00000
1385.06532	0.21252	0.61303	35282.55609	871.96034	21966.84718	1382.92250	0.61686	35216.00000	879.00000	22060.00000
1391.25968	0.21909	0.60382	35454.56849	868.59113	21752.18614	1389.11287	0.60653	35383.00000	859.00000	21799.00000
1397.45403	0.22511	0.59552	35619.60134	886.37628	21570.70066	1395.30324	0.59887	35583.00000	891.00000	21667.00000
1403.64839	0.23586	0.58096	35834.55471	865.31191	21181.10241	1401.49361	0.58695	35714.00000	866.00000	21320.00000
1409.84274	0.25330	0.55808	36489.35769	873.82043	20749.95557	1407.68398	0.56698	36214.00000	874.00000	20911.00000
1416.03710	0.27643	0.52914	37454.71523	877.22955	20231.74471	1413.87435	0.53961	37098.00000	872.00000	20420.00000
1422.23145	0.30249	0.49832	38501.95566	886.60375	19631.37343	1420.06472	0.50914	38137.00000	888.00000	19853.00000
1428.42581	0.32849	0.46937	39622.23895	874.12429	19060.81697	1426.25509	0.47899	39208.00000	877.00000	19237.00000
1434.62016	0.35098	0.44567	40761.26708	872.53526	18650.11473	1432.44546	0.45335	40388.00000	873.00000	18787.00000
1440.81452	0.36864	0.42792	41685.67119	872.92918	18337.42613	1438.63583	0.43345	41375.00000	872.00000	18428.00000
1447.00887	0.38089	0.41602	42697.97010	892.09592	18283.93472	1444.82620	0.41962	42303.00000	882.00000	18263.00000
1453.20323	0.38957	0.40778	43743.69350	881.19502	18359.90318	1451.01657	0.41048	43420.00000	897.00000	18352.00000
1459.39758	0.39546	0.40229	44616.30730	861.83262	18463.88622	1457.20694	0.40375	44284.00000	854.00000	18389.00000
1465.59194	0.39827	0.39969	45681.51347	893.65188	18795.00244	1463.39731	0.40051	45294.00000	891.00000	18675.00000
1471.78629	0.40016	0.39796	46691.44736	880.41136	19111.34289	1469.58768	0.39844	46358.00000	883.00000	19002.00000
1477.98065	0.40123	0.39698	47539.84378	864.96700	19393.82721	1475.77805	0.39731	47244.00000	875.00000	19298.00000
1484.17500	0.40186	0.39641	48453.02745	858.97393	19725.64541	1481.96842	0.39651	48107.00000	852.00000	19589.00000
1490.36935	0.40178	0.39647	49314.35954	885.82004	20086.47895	1488.15879	0.39643	49049.00000	881.00000	19976.00000
1496.56371	0.40119	0.39702	50001.49019	880.23876	20382.25147	1494.34916	0.39672	49741.00000	883.00000	20266.00000
1502.75806	0.39961	0.39847	50705.77350	864.52184	20724.50119	1500.53953	0.39785	50474.00000	872.00000	20606.00000
1508.95242	0.39683	0.40102	51385.78695	891.73536	21140.95541	1506.72990	0.39995	51118.00000	869.00000	20966.00000
1515.14677	0.39377	0.40386	52107.85403	893.71978	21576.92710	1512.92027	0.40296	51872.00000	917.00000	21450.00000
1521.34113	0.39064	0.40678	52815.89525	851.69957	21989.74364	1519.11064	0.40553	52530.00000	844.00000	21804.00000
1527.53548	0.38706	0.41015	53548.61369	896.26537	22491.48554	1525.30101	0.40911	53323.00000	892.00000	22342.00000
1533.72984	0.38459	0.41249	54149.95370	878.59624	22852.64205	1531.49138	0.41165	53910.00000	882.00000	22711.00000
1539.92419	0.38258	0.41440	54832.12801	868.84378	23231.28155	1537.68175	0.41384	54600.00000	876.00000	23109.00000
1546.11855	0.38130	0.41563	55451.13851	864.00141	23551.94789	1543.87212	0.41519	55220.00000	859.00000	23429.00000
1552.31290	0.38046	0.41643	56042.33834	881.37311	23852.16404	1550.06249	0.41626	55845.00000	879.00000	23759.00000
1558.50726	0.38029	0.41659	56662.34212	881.97129	24119.78200	1556.25286	0.41654	56406.00000	880.00000	24009.00000
1564.70161	0.38051	0.41638	57241.63462	881.81730	24349.03394	1562.44323	0.41656	57084.00000	885.00000	24295.00000
1570.89597	0.38088	0.41602	57652.97230	868.16681	24491.87401	1568.63360	0.41606	57470.00000	872.00000	24420.00000
1577.09032	0.38034	0.41654	58206.47218	874.43948	24755.64132	1574.82397	0.41626	58018.00000	869.00000	24658.00000
1583.28468	0.37917	0.41767	58673.40818	887.42953	25022.97236	1581.01434	0.41720	58502.00000	885.00000	24923.00000
1589.47903	0.37710	0.41966	59041.87130	888.83630	25293.34268	1587.20471	0.41877	58934.00000	888.00000	25196.00000
1595.67339	0.37408	0.42260	59358.10218	876.53006	25590.62859	1593.39508	0.42148	59218.00000	885.00000	25471.00000
1601.86774	0.37029	0.42629	59778.17203	883.72242	25990.06630	1599.58545	0.42477	59632.00000	871.00000	25831.00000
1608.06210	0.36583	0.43069	60103.05486	896.34115	26396.14925	1605.77582	0.42910	59993.00000	904.00000	26259.00000
1614.25645	0.36122	0.43529	60403.71328	879.81794	26789.83634	1611.96619	0.43348	60288.00000	876.00000	26630.00000
1620.45081	0.35639	0.44016	60606.54759	887.56155	27173.10303	1618.15656	0.43843	60563.00000	893.00000	27054.00000
1626.64516	0.35178	0.44485	60733.55595	878.59339	27505.21976	1624.34693	0.44304	60663.00000	874.00000	27363.00000
1632.83952	0.34709	0.44968	60986.21919	889.52033	27913.97874	1630.53730	0.44795	60896.00000	892.00000	27771.00000
1639.03387	0.34281	0.45414	61048.69415	866.62659	28197.50589	1636.72767	0.45248	61067.00000	874.00000	28110.00000
1645.22823	0.33851	0.45866	60863.78586	869.32764	28386.93270	1642.91804	0.45697	60949.00000	864.00000	28321.00000
1651.42258	0.33420	0.46324	59805.79968	899.77194	28186.85543	1649.10841	0.46153	60411.00000	887.00000	28359.00000
1657.61694	0.33048	0.46722	57584.63778	905.33477	27386.99322	1655.29878	0.46588	58428.00000	911.00000	27707.00000
1663.81129	0.32716	0.47081	56481.05190	890.63733	27064.13187	1661.48915	0.46937	56625.00000	891.00000	27051.00000
1670.00565	0.32351	0.47477	55048.67016	902.23167	26608.24089	1667.67952	0.47333	56028.00000	899.00000	26993.00000
1676.20000	0.32027	0.47833	51378.45954	875.98122	25034.63962	1673.86989	0.47703	52735.00000	893.00000	25623.00000
0.00000	0.00000	0.00000	0.00000	0.00000	0.00000	1680.06026	0.48070	48849.00000	859.00000	23928.00000
0.00000	0.00000	0.00000	0.00000	0.00000	0.00000	1686.25063	0.48453	44181.00000	908.00000	21875.00000
0.00000	0.00000	0.00000	0.00000	0.00000	0.00000	1692.44100	0.48453	44181.00000	908.00000	21875.00000
