'File 伊利奶粉_2_2016一月28_1057.xls
'Part ID 伊利奶粉_2
'Scan Created 2016/1/28 10:57:00
'Instrument S1-00205
'Version 1.5.7
'Integration Time 10100 s
'Number of Scans 50
'Units Absorbance
'Thermistor 48.07
Wavelength	Absorbance	Normalized	100%	dark	Raw 1	Native Wvl	Native Norm	Native 100%	Native dark	Native 1
908.10000	0.22975	0.58918	3514.15951	877.71219	2430.06222	906.26400	0.58005	3596.00000	879.00000	2455.00000
914.29435	0.20953	0.61726	3281.25113	863.65831	2356.21353	912.45437	0.60956	3339.00000	870.00000	2375.00000
920.48871	0.18927	0.64675	3227.40662	877.32414	2397.32242	918.64474	0.63663	3216.00000	863.00000	2361.00000
926.68306	0.16954	0.67680	3307.28228	905.48228	2530.82931	924.83511	0.66989	3291.00000	910.00000	2505.00000
932.87742	0.15527	0.69940	3382.42130	864.28145	2625.62484	931.02548	0.69106	3345.00000	872.00000	2581.00000
939.07177	0.13494	0.73292	3608.15965	881.02078	2879.88194	937.21585	0.72300	3528.00000	871.00000	2792.00000
945.26613	0.12009	0.75841	3846.64039	885.69520	3131.18925	943.40622	0.75233	3789.00000	894.00000	3072.00000
951.46048	0.11154	0.77349	4004.44998	860.87297	3292.45283	949.59659	0.76923	3954.00000	860.00000	3240.00000
957.65484	0.10539	0.78453	4209.47249	887.01493	3493.60672	955.78696	0.78204	4143.00000	881.00000	3432.00000
963.84919	0.10318	0.78853	4374.85740	871.56767	3633.91766	961.97733	0.78780	4341.00000	882.00000	3607.00000
970.04355	0.10159	0.79143	4520.56130	886.05989	3762.74240	968.16770	0.79025	4456.00000	866.00000	3703.00000
976.23790	0.10354	0.78788	4717.71427	911.39747	3910.01392	974.35807	0.79110	4679.00000	926.00000	3895.00000
982.43226	0.10881	0.77837	4843.76664	857.92770	3960.70705	980.54844	0.77939	4787.00000	857.00000	3920.00000
988.62661	0.10891	0.77819	5076.97721	894.34516	4149.03828	986.73881	0.77913	5011.00000	891.00000	4101.00000
994.82097	0.11230	0.77214	5297.39601	869.00992	4288.39835	992.92918	0.77376	5222.00000	877.00000	4239.00000
1001.01532	0.11371	0.76964	5554.06756	873.41459	4475.88194	999.11955	0.77005	5480.00000	866.00000	4419.00000
1007.20968	0.11437	0.76848	5827.05497	883.56657	4682.40878	1005.30992	0.76894	5731.00000	888.00000	4612.00000
1013.40403	0.11259	0.77163	6120.28754	870.80251	4921.55730	1011.50029	0.76936	6045.00000	868.00000	4851.00000
1019.59839	0.10768	0.78040	6348.68404	901.94795	5152.56121	1017.69066	0.77832	6270.00000	893.00000	5078.00000
1025.79274	0.10603	0.78338	6618.61076	896.05363	5378.93197	1023.88103	0.78279	6540.00000	905.00000	5316.00000
1031.98710	0.10426	0.78658	6878.79036	877.64868	5598.11616	1030.07140	0.78516	6792.00000	876.00000	5521.00000
1038.18145	0.10179	0.79105	7153.19229	875.20158	5841.29834	1036.26177	0.79002	7075.00000	884.00000	5775.00000
1044.37581	0.09987	0.79456	7435.03734	854.54502	6083.29639	1042.45214	0.79312	7334.00000	852.00000	5993.00000
1050.57016	0.09743	0.79903	7778.63216	881.04291	6392.34059	1048.64251	0.79800	7678.00000	876.00000	6304.00000
1056.76452	0.09594	0.80180	8066.37003	871.22278	6640.33314	1054.83288	0.80076	7979.00000	877.00000	6564.00000
1062.95887	0.09381	0.80573	8367.94643	870.25694	6911.35030	1061.02325	0.80454	8268.00000	865.00000	6821.00000
1069.15323	0.09240	0.80835	8674.59951	877.92605	7180.33288	1067.21362	0.80776	8586.00000	882.00000	7105.00000
1075.34758	0.09120	0.81059	8958.19691	861.24829	7424.64997	1073.40399	0.80965	8863.00000	862.00000	7340.00000
1081.54194	0.08949	0.81378	9269.61857	868.88623	7705.17031	1079.59436	0.81293	9175.00000	868.00000	7621.00000
1087.73629	0.08789	0.81679	9599.77547	889.96693	8004.18073	1085.78473	0.81564	9485.00000	877.00000	7898.00000
1093.93065	0.08669	0.81905	9958.85840	903.23915	8320.11599	1091.97510	0.81887	9855.00000	911.00000	8235.00000
1100.12500	0.08708	0.81832	10287.04131	864.70017	8575.23786	1098.16547	0.81847	10175.00000	871.00000	8486.00000
1106.31935	0.08709	0.81829	10673.09117	870.26271	8891.74484	1104.35584	0.81832	10550.00000	868.00000	8791.00000
1112.51371	0.08717	0.81815	11054.17109	867.39097	9201.75908	1110.54621	0.81816	10934.00000	870.00000	9104.00000
1118.70806	0.08785	0.81686	11440.58269	866.80701	9504.01103	1116.73658	0.81763	11315.00000	864.00000	9409.00000
1124.90242	0.09006	0.81271	11853.47185	879.92340	9798.33540	1122.92695	0.81424	11719.00000	877.00000	9705.00000
1131.09677	0.09429	0.80485	12279.20991	877.48685	10053.97887	1129.11732	0.80806	12144.00000	880.00000	9982.00000
1137.29113	0.10139	0.79179	12658.45812	855.49825	10201.08602	1135.30769	0.79627	12547.00000	865.00000	10167.00000
1143.48548	0.10953	0.77708	13049.18681	852.30684	10330.08370	1141.49806	0.78186	12906.00000	845.00000	10275.00000
1149.67984	0.11746	0.76303	13533.98158	886.77209	10537.32149	1147.68843	0.76734	13382.00000	879.00000	10473.00000
1155.87419	0.12666	0.74703	13997.40073	876.37382	10677.80115	1153.87880	0.75301	13845.00000	885.00000	10644.00000
1162.06855	0.13816	0.72751	14503.46887	861.13988	10786.18387	1160.06917	0.73343	14335.00000	860.00000	10743.00000
1168.26290	0.14764	0.71180	15009.58309	885.01032	10938.90988	1166.25954	0.71659	14853.00000	877.00000	10892.00000
1174.45726	0.15726	0.69620	15471.50866	888.01740	11041.03097	1172.44991	0.70159	15322.00000	892.00000	11016.00000
1180.65161	0.16834	0.67868	15938.18293	858.48109	11092.70326	1178.64028	0.68432	15786.00000	869.00000	11077.00000
1186.84597	0.17746	0.66458	16436.20435	853.30650	11209.42017	1184.83065	0.66840	16267.00000	848.00000	11154.00000
1193.04032	0.18335	0.65562	16954.92806	876.34677	11417.79679	1191.02102	0.65833	16791.00000	872.00000	11352.00000
1199.23468	0.18802	0.64861	17462.35109	876.98642	11634.37435	1197.21139	0.65060	17291.00000	877.00000	11556.00000
1205.42903	0.19073	0.64457	17986.83670	869.01927	11902.56029	1203.40176	0.64552	17820.00000	874.00000	11813.00000
1211.62339	0.18948	0.64643	18479.84056	863.23699	12251.21629	1209.59213	0.64478	18318.00000	861.00000	12117.00000
1217.81774	0.18245	0.65698	19014.17361	874.89956	12792.10109	1215.78250	0.65276	18829.00000	873.00000	12594.00000
1224.01210	0.17265	0.67196	19594.72563	876.04482	13454.35733	1221.97287	0.66688	19406.00000	875.00000	13233.00000
1230.20645	0.16392	0.68561	20120.20026	872.48020	14068.84091	1228.16324	0.68160	19956.00000	876.00000	13881.00000
1236.40081	0.15730	0.69615	20649.23727	886.34799	14644.51080	1234.35361	0.69276	20461.00000	874.00000	14443.00000
1242.59516	0.15199	0.70471	21186.14180	892.43754	15193.44773	1240.54398	0.70233	21027.00000	904.00000	15037.00000
1248.78952	0.14855	0.71031	21639.43707	853.74756	15618.02442	1246.73435	0.70854	21481.00000	857.00000	15470.00000
1254.98387	0.14542	0.71545	22186.10389	887.90098	16125.76316	1252.92472	0.71379	21995.00000	874.00000	15950.00000
1261.17823	0.14334	0.71889	22744.98332	890.64324	16601.39749	1259.11509	0.71811	22568.00000	900.00000	16460.00000
1267.37258	0.14235	0.72053	23243.71070	844.15789	16983.58135	1265.30546	0.71990	23078.00000	857.00000	16854.00000
1273.56694	0.14028	0.72398	23813.43146	859.99157	17477.79361	1271.49583	0.72251	23605.00000	844.00000	17289.00000
1279.76129	0.13741	0.72878	24453.54449	898.95555	18064.93657	1277.68620	0.72726	24247.00000	895.00000	17878.00000
1285.95565	0.13505	0.73274	25039.29282	882.87107	18583.28629	1283.87657	0.73145	24843.00000	888.00000	18410.00000
1292.15000	0.13277	0.73660	25633.20976	874.48479	19111.87424	1290.06694	0.73529	25432.00000	877.00000	18932.00000
1298.34435	0.13067	0.74016	26275.57944	875.36170	19675.67973	1296.25731	0.73908	26049.00000	873.00000	19480.00000
1304.53871	0.12948	0.74219	26910.28272	864.72671	20195.45524	1302.44769	0.74174	26712.00000	874.00000	20039.00000
1310.73306	0.12913	0.74279	27539.76334	865.28161	20678.90190	1308.63806	0.74265	27304.00000	854.00000	20497.00000
1316.92742	0.12954	0.74210	28270.79252	884.98210	21207.85457	1314.82843	0.74261	28032.00000	890.00000	21046.00000
1323.12177	0.13125	0.73918	28955.06915	860.68820	21627.47798	1321.01880	0.74035	28719.00000	862.00000	21486.00000
1329.31613	0.13428	0.73405	29633.32179	868.03484	21983.07393	1327.20917	0.73614	29411.00000	869.00000	21880.00000
1335.51048	0.13914	0.72586	30302.79696	861.31771	22231.84494	1333.39954	0.72897	30064.00000	861.00000	22149.00000
1341.70484	0.14610	0.71432	31040.63710	883.35260	22425.38039	1339.58991	0.71874	30788.00000	873.00000	22374.00000
1347.89919	0.15577	0.69860	31710.62252	886.82909	22420.52832	1345.78028	0.70442	31498.00000	894.00000	22452.00000
1354.09355	0.16700	0.68077	32368.46417	858.22619	22309.17909	1351.97065	0.68684	32123.00000	864.00000	22334.00000
1360.28790	0.17748	0.66453	33079.41609	863.88248	22272.45523	1358.16102	0.66979	32852.00000	860.00000	22288.00000
1366.48226	0.18690	0.65027	33719.60962	862.84716	22228.57622	1364.35139	0.65510	33491.00000	867.00000	22239.00000
1372.67661	0.19595	0.63687	34419.13569	848.00380	22228.56113	1370.54176	0.64134	34178.00000	851.00000	22225.00000
1378.87097	0.20426	0.62480	34997.78982	865.89108	22191.46050	1376.73213	0.62883	34829.00000	855.00000	22219.00000
1385.06532	0.21210	0.61362	35282.55609	871.96034	21986.86972	1382.92250	0.61741	35216.00000	879.00000	22079.00000
1391.25968	0.21855	0.60458	35454.56849	868.59113	21778.48745	1389.11287	0.60726	35383.00000	859.00000	21824.00000
1397.45403	0.22452	0.59632	35619.60134	886.37628	21598.60133	1395.30324	0.59965	35583.00000	891.00000	21694.00000
1403.64839	0.23515	0.58190	35834.55471	865.31191	21214.17931	1401.49361	0.58784	35714.00000	866.00000	21351.00000
1409.84274	0.25245	0.55917	36489.35769	873.82043	20788.79127	1407.68398	0.56802	36214.00000	874.00000	20948.00000
1416.03710	0.27545	0.53033	37454.71523	877.22955	20275.51001	1413.87435	0.54077	37098.00000	872.00000	20462.00000
1422.23145	0.30137	0.49961	38501.95566	886.60375	19679.87168	1420.06472	0.51040	38137.00000	888.00000	19900.00000
1428.42581	0.32730	0.47065	39622.23895	874.12429	19110.67724	1426.25509	0.48029	39208.00000	877.00000	19287.00000
1434.62016	0.34973	0.44696	40761.26708	872.53526	18701.52723	1432.44546	0.45461	40388.00000	873.00000	18837.00000
1440.81452	0.36731	0.42923	41685.67119	872.92918	18391.17805	1438.63583	0.43478	41375.00000	872.00000	18482.00000
1447.00887	0.37960	0.41726	42697.97010	892.09592	18335.78617	1444.82620	0.42087	42303.00000	882.00000	18315.00000
1453.20323	0.38824	0.40904	43743.69350	881.19502	18413.67770	1451.01657	0.41173	43420.00000	897.00000	18405.00000
1459.39758	0.39416	0.40350	44616.30730	861.83262	18516.87707	1457.20694	0.40500	44284.00000	854.00000	18443.00000
1465.59194	0.39704	0.40083	45681.51347	893.65188	18845.94792	1463.39731	0.40166	45294.00000	891.00000	18726.00000
1471.78629	0.39898	0.39905	46691.44736	880.41136	19161.24306	1469.58768	0.39956	46358.00000	883.00000	19053.00000
1477.98065	0.40010	0.39802	47539.84378	864.96700	19442.30892	1475.77805	0.39835	47244.00000	875.00000	19346.00000
1484.17500	0.40072	0.39745	48453.02745	858.97393	19775.20032	1481.96842	0.39757	48107.00000	852.00000	19639.00000
1490.36935	0.40075	0.39742	49314.35954	885.82004	20132.07031	1488.15879	0.39740	49049.00000	881.00000	20023.00000
1496.56371	0.40016	0.39796	50001.49019	880.23876	20428.58974	1494.34916	0.39764	49741.00000	883.00000	20311.00000
1502.75806	0.39854	0.39945	50705.77350	864.52184	20773.50445	1500.53953	0.39883	50474.00000	872.00000	20655.00000
1508.95242	0.39580	0.40198	51385.78695	891.73536	21189.22305	1506.72990	0.40090	51118.00000	869.00000	21014.00000
1515.14677	0.39275	0.40481	52107.85403	893.71978	21625.39463	1512.92027	0.40393	51872.00000	917.00000	21499.00000
1521.34113	0.38968	0.40768	52815.89525	851.69957	22036.54759	1519.11064	0.40644	52530.00000	844.00000	21851.00000
1527.53548	0.38617	0.41099	53548.61369	896.26537	22535.75970	1525.30101	0.40999	53323.00000	892.00000	22388.00000
1533.72984	0.38374	0.41330	54149.95370	878.59624	22895.67492	1531.49138	0.41244	53910.00000	882.00000	22753.00000
1539.92419	0.38168	0.41526	54832.12801	868.84378	23277.40213	1537.68175	0.41469	54600.00000	876.00000	23155.00000
1546.11855	0.38043	0.41645	55451.13851	864.00141	23597.05504	1543.87212	0.41602	55220.00000	859.00000	23474.00000
1552.31290	0.37958	0.41727	56042.33834	881.37311	23898.26234	1550.06249	0.41709	55845.00000	879.00000	23805.00000
1558.50726	0.37942	0.41742	56662.34212	881.97129	24166.02358	1556.25286	0.41737	56406.00000	880.00000	24055.00000
1564.70161	0.37968	0.41718	57241.63462	881.81730	24393.77344	1562.44323	0.41737	57084.00000	885.00000	24341.00000
1570.89597	0.38013	0.41675	57652.97230	868.16681	24533.08679	1568.63360	0.41680	57470.00000	872.00000	24462.00000
1577.09032	0.37955	0.41730	58206.47218	874.43948	24799.27390	1574.82397	0.41700	58018.00000	869.00000	24700.00000
1583.28468	0.37834	0.41846	58673.40818	887.42953	25068.73958	1581.01434	0.41800	58502.00000	885.00000	24969.00000
1589.47903	0.37633	0.42041	59041.87130	888.83630	25336.81171	1587.20471	0.41953	58934.00000	888.00000	25240.00000
1595.67339	0.37329	0.42336	59358.10218	876.53006	25635.59389	1593.39508	0.42223	59218.00000	885.00000	25515.00000
1601.86774	0.36951	0.42707	59778.17203	883.72242	26035.45666	1599.58545	0.42555	59632.00000	871.00000	25877.00000
1608.06210	0.36508	0.43144	60103.05486	896.34115	26440.34126	1605.77582	0.42984	59993.00000	904.00000	26303.00000
1614.25645	0.36048	0.43604	60403.71328	879.81794	26834.54642	1611.96619	0.43424	60288.00000	876.00000	26675.00000
1620.45081	0.35566	0.44090	60606.54759	887.56155	27217.50299	1618.15656	0.43917	60563.00000	893.00000	27098.00000
1626.64516	0.35102	0.44563	60733.55595	878.59339	27552.05631	1624.34693	0.44381	60663.00000	874.00000	27409.00000
1632.83952	0.34635	0.45045	60986.21919	889.52033	27960.05493	1630.53730	0.44874	60896.00000	892.00000	27818.00000
1639.03387	0.34208	0.45490	61048.69415	866.62659	28243.41678	1636.72767	0.45323	61067.00000	874.00000	28155.00000
1645.22823	0.33775	0.45946	60863.78586	869.32764	28434.89626	1642.91804	0.45777	60949.00000	864.00000	28369.00000
1651.42258	0.33349	0.46399	59805.79968	899.77194	28231.27164	1649.10841	0.46230	60411.00000	887.00000	28405.00000
1657.61694	0.32980	0.46795	57584.63778	905.33477	27428.05838	1655.29878	0.46661	58428.00000	911.00000	27749.00000
1663.81129	0.32646	0.47156	56481.05190	890.63733	27106.10459	1661.48915	0.47011	56625.00000	891.00000	27092.00000
1670.00565	0.32281	0.47555	55048.67016	902.23167	26650.19999	1667.67952	0.47411	56028.00000	899.00000	27036.00000
1676.20000	0.31959	0.47908	51378.45954	875.98122	25072.40206	1673.86989	0.47778	52735.00000	893.00000	25662.00000
0.00000	0.00000	0.00000	0.00000	0.00000	0.00000	1680.06026	0.48145	48849.00000	859.00000	23964.00000
0.00000	0.00000	0.00000	0.00000	0.00000	0.00000	1686.25063	0.48527	44181.00000	908.00000	21907.00000
0.00000	0.00000	0.00000	0.00000	0.00000	0.00000	1692.44100	0.48527	44181.00000	908.00000	21907.00000
