'File 土豆淀粉超市_5_2016一月28_1053.xls
'Part ID 土豆淀粉超市_5
'Scan Created 2016/1/28 10:53:02
'Instrument S1-00205
'Version 1.5.7
'Integration Time 10100 s
'Number of Scans 50
'Units Absorbance
'Thermistor 46.46
Wavelength	Absorbance	Normalized	100%	dark	Raw 1	Native Wvl	Native Norm	Native 100%	Native dark	Native 1
908.10000	0.22247	0.59914	3514.15951	877.71219	2456.36658	906.26400	0.59036	3596.00000	879.00000	2483.00000
914.29435	0.20314	0.62641	3281.25113	863.65831	2378.32620	912.45437	0.61887	3339.00000	870.00000	2398.00000
920.48871	0.18460	0.65373	3227.40662	877.32414	2413.69953	918.64474	0.64471	3216.00000	863.00000	2380.00000
926.68306	0.16603	0.68229	3307.28228	905.48228	2544.03525	924.83511	0.67493	3291.00000	910.00000	2517.00000
932.87742	0.15040	0.70729	3382.42130	864.28145	2645.50789	931.02548	0.69875	3345.00000	872.00000	2600.00000
939.07177	0.13278	0.73658	3608.15965	881.02078	2889.75886	937.21585	0.72864	3528.00000	871.00000	2807.00000
945.26613	0.12179	0.75546	3846.64039	885.69520	3122.54273	943.40622	0.75095	3789.00000	894.00000	3068.00000
951.46048	0.11646	0.76478	4004.44998	860.87297	3265.01494	949.59659	0.76277	3954.00000	860.00000	3220.00000
957.65484	0.11484	0.76765	4209.47249	887.01493	3437.48085	955.78696	0.76732	4143.00000	881.00000	3384.00000
963.84919	0.11491	0.76752	4374.85740	871.56767	3560.38551	961.97733	0.76756	4341.00000	882.00000	3537.00000
970.04355	0.11475	0.76780	4520.56130	886.05989	3676.72381	968.16770	0.76769	4456.00000	866.00000	3622.00000
976.23790	0.11709	0.76367	4717.71427	911.39747	3817.98881	974.35807	0.76605	4679.00000	926.00000	3801.00000
982.43226	0.12043	0.75782	4843.76664	857.92770	3878.67452	980.54844	0.75827	4787.00000	857.00000	3837.00000
988.62661	0.11990	0.75875	5076.97721	894.34516	4067.76976	986.73881	0.75898	5011.00000	891.00000	4018.00000
994.82097	0.12119	0.75650	5297.39601	869.00992	4219.16775	992.92918	0.75696	5222.00000	877.00000	4166.00000
1001.01532	0.12120	0.75649	5554.06756	873.41459	4414.26312	999.11955	0.75639	5480.00000	866.00000	4356.00000
1007.20968	0.12067	0.75742	5827.05497	883.56657	4627.83432	1005.30992	0.75697	5731.00000	888.00000	4554.00000
1013.40403	0.11731	0.76329	6120.28754	870.80251	4877.69938	1011.50029	0.76048	6045.00000	868.00000	4805.00000
1019.59839	0.11169	0.77324	6348.68404	901.94795	5113.58216	1017.69066	0.77069	6270.00000	893.00000	5037.00000
1025.79274	0.10877	0.77844	6618.61076	896.05363	5350.70583	1023.88103	0.77711	6540.00000	905.00000	5284.00000
1031.98710	0.10624	0.78299	6878.79036	877.64868	5576.55930	1030.07140	0.78144	6792.00000	876.00000	5499.00000
1038.18145	0.10362	0.78774	7153.19229	875.20158	5820.57345	1036.26177	0.78646	7075.00000	884.00000	5753.00000
1044.37581	0.10146	0.79166	7435.03734	854.54502	6064.17717	1042.45214	0.79034	7334.00000	852.00000	5975.00000
1050.57016	0.09960	0.79506	7778.63216	881.04291	6364.91106	1048.64251	0.79433	7678.00000	876.00000	6279.00000
1056.76452	0.09835	0.79734	8066.37003	871.22278	6608.31879	1054.83288	0.79640	7979.00000	877.00000	6533.00000
1062.95887	0.09668	0.80043	8367.94643	870.25694	6871.58478	1061.02325	0.79968	8268.00000	865.00000	6785.00000
1069.15323	0.09583	0.80200	8674.59951	877.92605	7130.86830	1067.21362	0.80153	8586.00000	882.00000	7057.00000
1075.34758	0.09489	0.80373	8958.19691	861.24829	7369.00533	1073.40399	0.80315	8863.00000	862.00000	7288.00000
1081.54194	0.09408	0.80523	9269.61857	868.88623	7633.36590	1079.59436	0.80486	9175.00000	868.00000	7554.00000
1087.73629	0.09341	0.80648	9599.77547	889.96693	7914.32567	1085.78473	0.80599	9485.00000	877.00000	7815.00000
1093.93065	0.09319	0.80689	9958.85840	903.23915	8210.05142	1091.97510	0.80713	9855.00000	911.00000	8130.00000
1100.12500	0.09411	0.80517	10287.04131	864.70017	8451.28621	1098.16547	0.80567	10175.00000	871.00000	8367.00000
1106.31935	0.09482	0.80386	10673.09117	870.26271	8750.36904	1104.35584	0.80428	10550.00000	868.00000	8655.00000
1112.51371	0.09553	0.80255	11054.17109	867.39097	9042.85954	1110.54621	0.80296	10934.00000	870.00000	8951.00000
1118.70806	0.09665	0.80049	11440.58269	866.80701	9330.92524	1116.73658	0.80136	11315.00000	864.00000	9239.00000
1124.90242	0.09875	0.79662	11853.47185	879.92340	9621.80016	1122.92695	0.79801	11719.00000	877.00000	9529.00000
1131.09677	0.10264	0.78951	12279.20991	877.48685	9879.17189	1129.11732	0.79244	12144.00000	880.00000	9806.00000
1137.29113	0.10967	0.77685	12658.45812	855.49825	10024.72090	1135.30769	0.78137	12547.00000	865.00000	9993.00000
1143.48548	0.11884	0.76061	13049.18681	852.30684	10129.12603	1141.49806	0.76611	12906.00000	845.00000	10085.00000
1149.67984	0.12857	0.74376	13533.98158	886.77209	10293.39884	1147.68843	0.74894	13382.00000	879.00000	10243.00000
1155.87419	0.13774	0.72822	13997.40073	876.37382	10431.21704	1153.87880	0.73326	13845.00000	885.00000	10388.00000
1162.06855	0.14632	0.71397	14503.46887	861.13988	10601.43228	1160.06917	0.71814	14335.00000	860.00000	10537.00000
1168.26290	0.15263	0.70367	15009.58309	885.01032	10824.10790	1166.25954	0.70664	14853.00000	877.00000	10753.00000
1174.45726	0.15845	0.69431	15471.50866	888.01740	11013.37056	1172.44991	0.69757	15322.00000	892.00000	10958.00000
1180.65161	0.16474	0.68432	15938.18293	858.48109	11177.84105	1178.64028	0.68734	15786.00000	869.00000	11122.00000
1186.84597	0.16965	0.67663	16436.20435	853.30650	11397.08831	1184.83065	0.67890	16267.00000	848.00000	11316.00000
1193.04032	0.17337	0.67085	16954.92806	876.34677	11662.73365	1191.02102	0.67253	16791.00000	872.00000	11578.00000
1199.23468	0.17541	0.66771	17462.35109	876.98642	11951.22128	1197.21139	0.66833	17291.00000	877.00000	11847.00000
1205.42903	0.17495	0.66843	17986.83670	869.01927	12311.06920	1203.40176	0.66777	17820.00000	874.00000	12190.00000
1211.62339	0.17226	0.67257	18479.84056	863.23699	12711.58186	1209.59213	0.67091	18318.00000	861.00000	12573.00000
1217.81774	0.16837	0.67863	19014.17361	874.89956	13184.68083	1215.78250	0.67654	18829.00000	873.00000	13021.00000
1224.01210	0.16409	0.68534	19594.72563	876.04482	13704.81445	1221.97287	0.68307	19406.00000	875.00000	13533.00000
1230.20645	0.16008	0.69170	20120.20026	872.48020	14186.01727	1228.16324	0.68978	19956.00000	876.00000	14037.00000
1236.40081	0.15677	0.69699	20649.23727	886.34799	14661.03854	1234.35361	0.69526	20461.00000	874.00000	14492.00000
1242.59516	0.15423	0.70108	21186.14180	892.43754	15119.92651	1240.54398	0.70004	21027.00000	904.00000	14991.00000
1248.78952	0.15286	0.70330	21639.43707	853.74756	15472.29894	1246.73435	0.70258	21481.00000	857.00000	15347.00000
1254.98387	0.15142	0.70563	22186.10389	887.90098	15916.52183	1252.92472	0.70484	21995.00000	874.00000	15761.00000
1261.17823	0.15030	0.70746	22744.98332	890.64324	16351.67462	1259.11509	0.70699	22568.00000	900.00000	16219.00000
1267.37258	0.14965	0.70852	23243.71070	844.15789	16714.74244	1265.30546	0.70816	23078.00000	857.00000	16593.00000
1273.56694	0.14850	0.71039	23813.43146	859.99157	17165.88380	1271.49583	0.70959	23605.00000	844.00000	16995.00000
1279.76129	0.14703	0.71280	24453.54449	898.95555	17688.57686	1277.68620	0.71210	24247.00000	895.00000	17524.00000
1285.95565	0.14632	0.71397	25039.29282	882.87107	18129.86775	1283.87657	0.71371	24843.00000	888.00000	17985.00000
1292.15000	0.14600	0.71450	25633.20976	874.48479	18564.54433	1290.06694	0.71431	25432.00000	877.00000	18417.00000
1298.34435	0.14608	0.71437	26275.57944	875.36170	19020.54215	1296.25731	0.71461	26049.00000	873.00000	18864.00000
1304.53871	0.14729	0.71237	26910.28272	864.72671	19418.85250	1302.44769	0.71325	26712.00000	874.00000	19303.00000
1310.73306	0.14956	0.70866	27539.76334	865.28161	19768.48117	1308.63806	0.71009	27304.00000	854.00000	19636.00000
1316.92742	0.15307	0.70297	28270.79252	884.98210	20136.25853	1314.82843	0.70518	28032.00000	890.00000	20030.00000
1323.12177	0.15799	0.69503	28955.06915	860.68820	20387.22064	1321.01880	0.69792	28719.00000	862.00000	20304.00000
1329.31613	0.16421	0.68516	29633.32179	868.03484	20576.94439	1327.20917	0.68877	29411.00000	869.00000	20528.00000
1335.51048	0.17159	0.67361	30302.79696	861.31771	20693.39319	1333.39954	0.67764	30064.00000	861.00000	20650.00000
1341.70484	0.17946	0.66151	31040.63710	883.35260	20832.77393	1339.58991	0.66569	30788.00000	873.00000	20787.00000
1347.89919	0.18762	0.64920	31710.62252	886.82909	20897.84979	1345.78028	0.65341	31498.00000	894.00000	20891.00000
1354.09355	0.19559	0.63740	32368.46417	858.22619	20942.64701	1351.97065	0.64132	32123.00000	864.00000	20911.00000
1360.28790	0.20302	0.62658	33079.41609	863.88248	21049.75289	1358.16102	0.63022	32852.00000	860.00000	21022.00000
1366.48226	0.21050	0.61589	33719.60962	862.84716	21098.87355	1364.35139	0.61964	33491.00000	867.00000	21082.00000
1372.67661	0.21891	0.60407	34419.13569	848.00380	21127.25227	1370.54176	0.60834	34178.00000	851.00000	21125.00000
1378.87097	0.22877	0.59051	34997.78982	865.89108	21021.32977	1376.73213	0.59540	34829.00000	855.00000	21083.00000
1385.06532	0.24111	0.57398	35282.55609	871.96034	20622.95353	1382.92250	0.58022	35216.00000	879.00000	20802.00000
1391.25968	0.25735	0.55291	35454.56849	868.59113	19991.26249	1389.11287	0.56068	35383.00000	859.00000	20216.00000
1397.45403	0.27809	0.52712	35619.60134	886.37628	19195.38264	1395.30324	0.53669	35583.00000	891.00000	19510.00000
1403.64839	0.30325	0.49745	35834.55471	865.31191	18260.81774	1401.49361	0.50795	35714.00000	866.00000	18567.00000
1409.84274	0.33070	0.46699	36489.35769	873.82043	17505.53185	1407.68398	0.47762	36214.00000	874.00000	17753.00000
1416.03710	0.35866	0.43787	37454.71523	877.22955	16893.41197	1413.87435	0.44766	37098.00000	872.00000	17089.00000
1422.23145	0.38446	0.41261	38501.95566	886.60375	16407.12762	1420.06472	0.42095	38137.00000	888.00000	16568.00000
1428.42581	0.40639	0.39229	39622.23895	874.12429	16074.44503	1426.25509	0.39876	39208.00000	877.00000	16162.00000
1434.62016	0.42315	0.37744	40761.26708	872.53526	15928.40741	1432.44546	0.38208	40388.00000	873.00000	15971.00000
1440.81452	0.43484	0.36741	41685.67119	872.92918	15868.10808	1438.63583	0.37042	41375.00000	872.00000	15875.00000
1447.00887	0.44173	0.36163	42697.97010	892.09592	16010.55135	1444.82620	0.36325	42303.00000	882.00000	15928.00000
1453.20323	0.44567	0.35837	43743.69350	881.19502	16241.65041	1451.01657	0.35941	43420.00000	897.00000	16180.00000
1459.39758	0.44771	0.35669	44616.30730	861.83262	16468.78182	1457.20694	0.35699	44284.00000	854.00000	16358.00000
1465.59194	0.44741	0.35694	45681.51347	893.65188	16880.04833	1463.39731	0.35676	45294.00000	891.00000	16732.00000
1471.78629	0.44588	0.35819	46691.44736	880.41136	17289.56705	1469.58768	0.35758	46358.00000	883.00000	17144.00000
1477.98065	0.44285	0.36070	47539.84378	864.96700	17700.47529	1475.77805	0.35970	47244.00000	875.00000	17554.00000
1484.17500	0.43848	0.36435	48453.02745	858.97393	18200.09237	1481.96842	0.36288	48107.00000	852.00000	18000.00000
1490.36935	0.43306	0.36892	49314.35954	885.82004	18752.04881	1488.15879	0.36728	49049.00000	881.00000	18572.00000
1496.56371	0.42756	0.37363	50001.49019	880.23876	19233.52459	1494.34916	0.37191	49741.00000	883.00000	19054.00000
1502.75806	0.42199	0.37845	50705.77350	864.52184	19726.79302	1500.53953	0.37674	50474.00000	872.00000	19559.00000
1508.95242	0.41649	0.38327	51385.78695	891.73536	20244.76336	1506.72990	0.38152	51118.00000	869.00000	20040.00000
1515.14677	0.41161	0.38761	52107.85403	893.71978	20744.53586	1512.92027	0.38620	51872.00000	917.00000	20596.00000
1521.34113	0.40736	0.39142	52815.89525	851.69957	21191.53585	1519.11064	0.38997	52530.00000	844.00000	21000.00000
1527.53548	0.40340	0.39500	53548.61369	896.26537	21693.89291	1525.30101	0.39389	53323.00000	892.00000	21544.00000
1533.72984	0.40067	0.39750	54149.95370	878.59624	22053.79024	1531.49138	0.39662	53910.00000	882.00000	21914.00000
1539.92419	0.39842	0.39956	54832.12801	868.84378	22430.29958	1537.68175	0.39891	54600.00000	876.00000	22307.00000
1546.11855	0.39685	0.40101	55451.13851	864.00141	22753.75981	1543.87212	0.40051	55220.00000	859.00000	22631.00000
1552.31290	0.39554	0.40222	56042.33834	881.37311	23068.20403	1550.06249	0.40181	55845.00000	879.00000	22965.00000
1558.50726	0.39434	0.40333	56662.34212	881.97129	23379.87188	1556.25286	0.40291	56406.00000	880.00000	23252.00000
1564.70161	0.39317	0.40441	57241.63462	881.81730	23674.42989	1562.44323	0.40405	57084.00000	885.00000	23592.00000
1570.89597	0.39189	0.40561	57652.97230	868.16681	23900.89360	1568.63360	0.40510	57470.00000	872.00000	23800.00000
1577.09032	0.38994	0.40744	58206.47218	874.43948	24233.53578	1574.82397	0.40671	58018.00000	869.00000	24112.00000
1583.28468	0.38760	0.40964	58673.40818	887.42953	24558.80841	1581.01434	0.40880	58502.00000	885.00000	24439.00000
1589.47903	0.38472	0.41237	59041.87130	888.83630	24869.21436	1587.20471	0.41126	58934.00000	888.00000	24760.00000
1595.67339	0.38110	0.41582	59358.10218	876.53006	25194.35945	1593.39508	0.41450	59218.00000	885.00000	25064.00000
1601.86774	0.37677	0.41998	59778.17203	883.72242	25618.44396	1599.58545	0.41832	59632.00000	871.00000	25452.00000
1608.06210	0.37181	0.42481	60103.05486	896.34115	26047.79006	1605.77582	0.42302	59993.00000	904.00000	25900.00000
1614.25645	0.36649	0.43004	60403.71328	879.81794	26477.69955	1611.96619	0.42799	60288.00000	876.00000	26304.00000
1620.45081	0.36080	0.43571	60606.54759	887.56155	26907.84904	1618.15656	0.43365	60563.00000	893.00000	26769.00000
1626.64516	0.35516	0.44141	60733.55595	878.59339	27299.27813	1624.34693	0.43923	60663.00000	874.00000	27135.00000
1632.83952	0.34942	0.44728	60986.21919	889.52033	27769.55653	1630.53730	0.44515	60896.00000	892.00000	27603.00000
1639.03387	0.34414	0.45275	61048.69415	866.62659	28114.04531	1636.72767	0.45073	61067.00000	874.00000	28005.00000
1645.22823	0.33900	0.45814	60863.78586	869.32764	28355.73810	1642.91804	0.45614	60949.00000	864.00000	28271.00000
1651.42258	0.33402	0.46342	59805.79968	899.77194	28197.93575	1649.10841	0.46148	60411.00000	887.00000	28356.00000
1657.61694	0.32956	0.46820	57584.63778	905.33477	27442.37710	1655.29878	0.46651	58428.00000	911.00000	27743.00000
1663.81129	0.32520	0.47294	56481.05190	890.63733	27182.92407	1661.48915	0.47106	56625.00000	891.00000	27145.00000
1670.00565	0.32041	0.47818	55048.67016	902.23167	26791.98077	1667.67952	0.47623	56028.00000	899.00000	27153.00000
1676.20000	0.31590	0.48317	51378.45954	875.98122	25279.37633	1673.86989	0.48131	52735.00000	893.00000	25845.00000
0.00000	0.00000	0.00000	0.00000	0.00000	0.00000	1680.06026	0.48650	48849.00000	859.00000	24206.00000
0.00000	0.00000	0.00000	0.00000	0.00000	0.00000	1686.25063	0.49162	44181.00000	908.00000	22182.00000
0.00000	0.00000	0.00000	0.00000	0.00000	0.00000	1692.44100	0.49162	44181.00000	908.00000	22182.00000
