'File 土豆淀粉超市_1_2016一月28_1052.xls
'Part ID 土豆淀粉超市_1
'Scan Created 2016/1/28 10:52:07
'Instrument S1-00205
'Version 1.5.7
'Integration Time 10100 s
'Number of Scans 50
'Units Absorbance
'Thermistor 46.46
Wavelength	Absorbance	Normalized	100%	dark	Raw 1	Native Wvl	Native Norm	Native 100%	Native dark	Native 1
908.10000	0.22367	0.59748	3514.15951	877.71219	2452.08938	906.26400	0.58925	3596.00000	879.00000	2480.00000
914.29435	0.20477	0.62406	3281.25113	863.65831	2372.60881	912.45437	0.61644	3339.00000	870.00000	2392.00000
920.48871	0.18561	0.65222	3227.40662	877.32414	2410.15195	918.64474	0.64301	3216.00000	863.00000	2376.00000
926.68306	0.16616	0.68208	3307.28228	905.48228	2543.57280	924.83511	0.67409	3291.00000	910.00000	2515.00000
932.87742	0.15013	0.70774	3382.42130	864.28145	2646.54332	931.02548	0.69956	3345.00000	872.00000	2602.00000
939.07177	0.13310	0.73603	3608.15965	881.02078	2888.35897	937.21585	0.72789	3528.00000	871.00000	2805.00000
945.26613	0.12131	0.75630	3846.64039	885.69520	3124.94393	943.40622	0.75164	3789.00000	894.00000	3070.00000
951.46048	0.11603	0.76555	4004.44998	860.87297	3267.49385	949.59659	0.76341	3954.00000	860.00000	3222.00000
957.65484	0.11417	0.76882	4209.47249	887.01493	3441.34984	955.78696	0.76855	4143.00000	881.00000	3388.00000
963.84919	0.11474	0.76783	4374.85740	871.56767	3561.47228	961.97733	0.76814	4341.00000	882.00000	3539.00000
970.04355	0.11437	0.76848	4520.56130	886.05989	3679.23140	968.16770	0.76797	4456.00000	866.00000	3623.00000
976.23790	0.11589	0.76578	4717.71427	911.39747	3826.01451	974.35807	0.76792	4679.00000	926.00000	3808.00000
982.43226	0.11937	0.75969	4843.76664	857.92770	3886.10861	980.54844	0.76031	4787.00000	857.00000	3845.00000
988.62661	0.11914	0.76009	5076.97721	894.34516	4073.37204	986.73881	0.76044	5011.00000	891.00000	4024.00000
994.82097	0.12058	0.75756	5297.39601	869.00992	4223.83114	992.92918	0.75811	5222.00000	877.00000	4171.00000
1001.01532	0.12071	0.75733	5554.06756	873.41459	4418.20290	999.11955	0.75726	5480.00000	866.00000	4360.00000
1007.20968	0.12021	0.75821	5827.05497	883.56657	4631.74625	1005.30992	0.75779	5731.00000	888.00000	4558.00000
1013.40403	0.11682	0.76415	6120.28754	870.80251	4882.17093	1011.50029	0.76125	6045.00000	868.00000	4809.00000
1019.59839	0.11102	0.77443	6348.68404	901.94795	5120.08127	1017.69066	0.77181	6270.00000	893.00000	5043.00000
1025.79274	0.10831	0.77928	6618.61076	896.05363	5355.45421	1023.88103	0.77817	6540.00000	905.00000	5290.00000
1031.98710	0.10606	0.78332	6878.79036	877.64868	5578.51094	1030.07140	0.78178	6792.00000	876.00000	5501.00000
1038.18145	0.10316	0.78857	7153.19229	875.20158	5825.74271	1036.26177	0.78711	7075.00000	884.00000	5757.00000
1044.37581	0.10086	0.79277	7435.03734	854.54502	6071.39857	1042.45214	0.79142	7334.00000	852.00000	5982.00000
1050.57016	0.09888	0.79639	7778.63216	881.04291	6374.12636	1048.64251	0.79550	7678.00000	876.00000	6287.00000
1056.76452	0.09760	0.79874	8066.37003	871.22278	6618.27963	1054.83288	0.79794	7979.00000	877.00000	6544.00000
1062.95887	0.09615	0.80141	8367.94643	870.25694	6878.96978	1061.02325	0.80062	8268.00000	865.00000	6792.00000
1069.15323	0.09511	0.80333	8674.59951	877.92605	7141.17995	1067.21362	0.80283	8586.00000	882.00000	7067.00000
1075.34758	0.09420	0.80502	8958.19691	861.24829	7379.46333	1073.40399	0.80440	8863.00000	862.00000	7298.00000
1081.54194	0.09330	0.80668	9269.61857	868.88623	7645.54271	1079.59436	0.80631	9175.00000	868.00000	7566.00000
1087.73629	0.09279	0.80762	9599.77547	889.96693	7924.27218	1085.78473	0.80727	9485.00000	877.00000	7826.00000
1093.93065	0.09259	0.80800	9958.85840	903.23915	8220.17564	1091.97510	0.80814	9855.00000	911.00000	8139.00000
1100.12500	0.09338	0.80653	10287.04131	864.70017	8464.15713	1098.16547	0.80707	10175.00000	871.00000	8380.00000
1106.31935	0.09423	0.80496	10673.09117	870.26271	8761.13938	1104.35584	0.80541	10550.00000	868.00000	8666.00000
1112.51371	0.09484	0.80383	11054.17109	867.39097	9055.83255	1110.54621	0.80415	10934.00000	870.00000	8963.00000
1118.70806	0.09585	0.80196	11440.58269	866.80701	9346.55529	1116.73658	0.80279	11315.00000	864.00000	9254.00000
1124.90242	0.09796	0.79806	11853.47185	879.92340	9637.54978	1122.92695	0.79948	11719.00000	877.00000	9545.00000
1131.09677	0.10181	0.79102	12279.20991	877.48685	9896.35962	1129.11732	0.79386	12144.00000	880.00000	9822.00000
1137.29113	0.10870	0.77857	12658.45812	855.49825	10045.02343	1135.30769	0.78309	12547.00000	865.00000	10013.00000
1143.48548	0.11789	0.76228	13049.18681	852.30684	10149.53685	1141.49806	0.76776	12906.00000	845.00000	10105.00000
1149.67984	0.12753	0.74553	13533.98158	886.77209	10315.86601	1147.68843	0.75070	13382.00000	879.00000	10265.00000
1155.87419	0.13678	0.72982	13997.40073	876.37382	10452.20993	1153.87880	0.73495	13845.00000	885.00000	10410.00000
1162.06855	0.14548	0.71536	14503.46887	861.13988	10620.35812	1160.06917	0.71955	14335.00000	860.00000	10556.00000
1168.26290	0.15184	0.70495	15009.58309	885.01032	10842.24158	1166.25954	0.70800	14853.00000	877.00000	10772.00000
1174.45726	0.15777	0.69540	15471.50866	888.01740	11029.25813	1172.44991	0.69868	15322.00000	892.00000	10974.00000
1180.65161	0.16410	0.68532	15938.18293	858.48109	11192.98045	1178.64028	0.68841	15786.00000	869.00000	11138.00000
1186.84597	0.16912	0.67745	16436.20435	853.30650	11409.97461	1184.83065	0.67975	16267.00000	848.00000	11329.00000
1193.04032	0.17288	0.67161	16954.92806	876.34677	11674.90062	1191.02102	0.67335	16791.00000	872.00000	11591.00000
1199.23468	0.17494	0.66844	17462.35109	876.98642	11963.35196	1197.21139	0.66900	17291.00000	877.00000	11858.00000
1205.42903	0.17438	0.66929	17986.83670	869.01927	12325.84505	1203.40176	0.66865	17820.00000	874.00000	12205.00000
1211.62339	0.17178	0.67331	18479.84056	863.23699	12724.73144	1209.59213	0.67165	18318.00000	861.00000	12586.00000
1217.81774	0.16781	0.67950	19014.17361	874.89956	13200.46015	1215.78250	0.67738	18829.00000	873.00000	13036.00000
1224.01210	0.16349	0.68629	19594.72563	876.04482	13722.49316	1221.97287	0.68399	19406.00000	875.00000	13550.00000
1230.20645	0.15945	0.69271	20120.20026	872.48020	14205.40379	1228.16324	0.69078	19956.00000	876.00000	14056.00000
1236.40081	0.15620	0.69791	20649.23727	886.34799	14679.13714	1234.35361	0.69623	20461.00000	874.00000	14511.00000
1242.59516	0.15369	0.70196	21186.14180	892.43754	15137.76018	1240.54398	0.70089	21027.00000	904.00000	15008.00000
1248.78952	0.15227	0.70426	21639.43707	853.74756	15492.18019	1246.73435	0.70355	21481.00000	857.00000	15367.00000
1254.98387	0.15086	0.70655	22186.10389	887.90098	15936.08801	1252.92472	0.70574	21995.00000	874.00000	15780.00000
1261.17823	0.14972	0.70840	22744.98332	890.64324	16372.26423	1259.11509	0.70796	22568.00000	900.00000	16240.00000
1267.37258	0.14913	0.70937	23243.71070	844.15789	16733.74294	1265.30546	0.70901	23078.00000	857.00000	16612.00000
1273.56694	0.14797	0.71127	23813.43146	859.99157	17186.14675	1271.49583	0.71047	23605.00000	844.00000	17015.00000
1279.76129	0.14653	0.71363	24453.54449	898.95555	17708.22877	1277.68620	0.71296	24247.00000	895.00000	17544.00000
1285.95565	0.14578	0.71485	25039.29282	882.87107	18151.15056	1283.87657	0.71455	24843.00000	888.00000	18005.00000
1292.15000	0.14540	0.71548	25633.20976	874.48479	18588.84241	1290.06694	0.71529	25432.00000	877.00000	18441.00000
1298.34435	0.14549	0.71533	26275.57944	875.36170	19044.97315	1296.25731	0.71556	26049.00000	873.00000	18888.00000
1304.53871	0.14667	0.71339	26910.28272	864.72671	19445.42123	1302.44769	0.71426	26712.00000	874.00000	19329.00000
1310.73306	0.14894	0.70968	27539.76334	865.28161	19795.51047	1308.63806	0.71112	27304.00000	854.00000	19663.00000
1316.92742	0.15240	0.70404	28270.79252	884.98210	20165.72183	1314.82843	0.70621	28032.00000	890.00000	20058.00000
1323.12177	0.15729	0.69617	28955.06915	860.68820	20419.10690	1321.01880	0.69907	28719.00000	862.00000	20336.00000
1329.31613	0.16356	0.68618	29633.32179	868.03484	20606.20667	1327.20917	0.68983	29411.00000	869.00000	20558.00000
1335.51048	0.17089	0.67469	30302.79696	861.31771	20725.23414	1333.39954	0.67866	30064.00000	861.00000	20680.00000
1341.70484	0.17870	0.66267	31040.63710	883.35260	20867.57054	1339.58991	0.66686	30788.00000	873.00000	20822.00000
1347.89919	0.18685	0.65035	31710.62252	886.82909	20933.29945	1345.78028	0.65452	31498.00000	894.00000	20925.00000
1354.09355	0.19474	0.63864	32368.46417	858.22619	20981.82776	1351.97065	0.64257	32123.00000	864.00000	20950.00000
1360.28790	0.20215	0.62784	33079.41609	863.88248	21090.40420	1358.16102	0.63144	32852.00000	860.00000	21061.00000
1366.48226	0.20951	0.61729	33719.60962	862.84716	21144.99311	1364.35139	0.62102	33491.00000	867.00000	21127.00000
1372.67661	0.21789	0.60550	34419.13569	848.00380	21175.16404	1370.54176	0.60975	34178.00000	851.00000	21172.00000
1378.87097	0.22768	0.59200	34997.78982	865.89108	21072.01070	1376.73213	0.59687	34829.00000	855.00000	21133.00000
1385.06532	0.23993	0.57553	35282.55609	871.96034	20676.26704	1382.92250	0.58173	35216.00000	879.00000	20854.00000
1391.25968	0.25606	0.55455	35454.56849	868.59113	20048.15322	1389.11287	0.56230	35383.00000	859.00000	20272.00000
1397.45403	0.27664	0.52888	35619.60134	886.37628	19256.55484	1395.30324	0.53840	35583.00000	891.00000	19569.00000
1403.64839	0.30168	0.49925	35834.55471	865.31191	18323.79304	1401.49361	0.50979	35714.00000	866.00000	18631.00000
1409.84274	0.32919	0.46861	36489.35769	873.82043	17563.32375	1407.68398	0.47929	36214.00000	874.00000	17812.00000
1416.03710	0.35720	0.43934	37454.71523	877.22955	16947.33099	1413.87435	0.44921	37098.00000	872.00000	17145.00000
1422.23145	0.38323	0.41379	38501.95566	886.60375	16451.37918	1420.06472	0.42224	38137.00000	888.00000	16616.00000
1428.42581	0.40545	0.39314	39622.23895	874.12429	16107.50627	1426.25509	0.39973	39208.00000	877.00000	16199.00000
1434.62016	0.42265	0.37788	40761.26708	872.53526	15945.70388	1432.44546	0.38269	40388.00000	873.00000	15995.00000
1440.81452	0.43491	0.36736	41685.67119	872.92918	15865.96408	1438.63583	0.37052	41375.00000	872.00000	15879.00000
1447.00887	0.44223	0.36122	42697.97010	892.09592	15993.17943	1444.82620	0.36296	42303.00000	882.00000	15916.00000
1453.20323	0.44657	0.35763	43743.69350	881.19502	16209.90996	1451.01657	0.35877	43420.00000	897.00000	16153.00000
1459.39758	0.44895	0.35567	44616.30730	861.83262	16424.14984	1457.20694	0.35607	44284.00000	854.00000	16318.00000
1465.59194	0.44890	0.35571	45681.51347	893.65188	16825.28822	1463.39731	0.35558	45294.00000	891.00000	16680.00000
1471.78629	0.44759	0.35678	46691.44736	880.41136	17225.07472	1469.58768	0.35626	46358.00000	883.00000	17084.00000
1477.98065	0.44482	0.35907	47539.84378	864.96700	17624.42995	1475.77805	0.35813	47244.00000	875.00000	17481.00000
1484.17500	0.44056	0.36261	48453.02745	858.97393	18117.38456	1481.96842	0.36119	48107.00000	852.00000	17920.00000
1490.36935	0.43527	0.36705	49314.35954	885.82004	18661.59460	1488.15879	0.36545	49049.00000	881.00000	18484.00000
1496.56371	0.42989	0.37163	50001.49019	880.23876	19135.27062	1494.34916	0.36997	49741.00000	883.00000	18959.00000
1502.75806	0.42439	0.37637	50705.77350	864.52184	19623.10508	1500.53953	0.37466	50474.00000	872.00000	19456.00000
1508.95242	0.41892	0.38113	51385.78695	891.73536	20136.77671	1506.72990	0.37943	51118.00000	869.00000	19935.00000
1515.14677	0.41408	0.38541	52107.85403	893.71978	20631.82227	1512.92027	0.38399	51872.00000	917.00000	20483.00000
1521.34113	0.40977	0.38925	52815.89525	851.69957	21078.94813	1519.11064	0.38782	52530.00000	844.00000	20889.00000
1527.53548	0.40587	0.39277	53548.61369	896.26537	21576.17048	1525.30101	0.39166	53323.00000	892.00000	21427.00000
1533.72984	0.40307	0.39530	54149.95370	878.59624	21936.79033	1531.49138	0.39441	53910.00000	882.00000	21797.00000
1539.92419	0.40082	0.39736	54832.12801	868.84378	22311.54326	1537.68175	0.39671	54600.00000	876.00000	22189.00000
1546.11855	0.39925	0.39880	55451.13851	864.00141	22633.22588	1543.87212	0.39830	55220.00000	859.00000	22511.00000
1552.31290	0.39791	0.40003	56042.33834	881.37311	22947.17856	1550.06249	0.39961	55845.00000	879.00000	22844.00000
1558.50726	0.39674	0.40111	56662.34212	881.97129	23256.13149	1556.25286	0.40071	56406.00000	880.00000	23130.00000
1564.70161	0.39562	0.40215	57241.63462	881.81730	23546.65607	1562.44323	0.40179	57084.00000	885.00000	23465.00000
1570.89597	0.39431	0.40335	57652.97230	868.16681	23772.56825	1568.63360	0.40284	57470.00000	872.00000	23672.00000
1577.09032	0.39235	0.40518	58206.47218	874.43948	24104.41869	1574.82397	0.40445	58018.00000	869.00000	23983.00000
1583.28468	0.39002	0.40736	58673.40818	887.42953	24427.20658	1581.01434	0.40655	58502.00000	885.00000	24309.00000
1589.47903	0.38719	0.41002	59041.87130	888.83630	24732.86690	1587.20471	0.40893	58934.00000	888.00000	24625.00000
1595.67339	0.38354	0.41348	59358.10218	876.53006	25057.75541	1593.39508	0.41215	59218.00000	885.00000	24927.00000
1601.86774	0.37926	0.41758	59778.17203	883.72242	25476.84740	1599.58545	0.41597	59632.00000	871.00000	25314.00000
1608.06210	0.37434	0.42234	60103.05486	896.34115	25901.51269	1605.77582	0.42054	59993.00000	904.00000	25753.00000
1614.25645	0.36893	0.42763	60403.71328	879.81794	26334.18268	1611.96619	0.42559	60288.00000	876.00000	26161.00000
1620.45081	0.36324	0.43327	60606.54759	887.56155	26762.03514	1618.15656	0.43120	60563.00000	893.00000	26623.00000
1626.64516	0.35752	0.43901	60733.55595	878.59339	27155.64521	1624.34693	0.43682	60663.00000	874.00000	26991.00000
1632.83952	0.35176	0.44488	60986.21919	889.52033	27625.45488	1630.53730	0.44275	60896.00000	892.00000	27459.00000
1639.03387	0.34640	0.45040	61048.69415	866.62659	27972.72147	1636.72767	0.44836	61067.00000	874.00000	27862.00000
1645.22823	0.34120	0.45582	60863.78586	869.32764	28216.55752	1642.91804	0.45382	60949.00000	864.00000	28132.00000
1651.42258	0.33624	0.46106	59805.79968	899.77194	28058.77049	1649.10841	0.45913	60411.00000	887.00000	28216.00000
1657.61694	0.33176	0.46584	57584.63778	905.33477	27308.42258	1655.29878	0.46414	58428.00000	911.00000	27607.00000
1663.81129	0.32739	0.47056	56481.05190	890.63733	27050.57604	1661.48915	0.46869	56625.00000	891.00000	27013.00000
1670.00565	0.32268	0.47569	55048.67016	902.23167	26657.35786	1667.67952	0.47380	56028.00000	899.00000	27019.00000
1676.20000	0.31836	0.48044	51378.45954	875.98122	25141.54546	1673.86989	0.47869	52735.00000	893.00000	25709.00000
0.00000	0.00000	0.00000	0.00000	0.00000	0.00000	1680.06026	0.48356	48849.00000	859.00000	24065.00000
0.00000	0.00000	0.00000	0.00000	0.00000	0.00000	1686.25063	0.48834	44181.00000	908.00000	22040.00000
0.00000	0.00000	0.00000	0.00000	0.00000	0.00000	1692.44100	0.48834	44181.00000	908.00000	22040.00000
