'File 土豆淀粉超市_4_2016一月28_1052.xls
'Part ID 土豆淀粉超市_4
'Scan Created 2016/1/28 10:52:57
'Instrument S1-00205
'Version 1.5.7
'Integration Time 10100 s
'Number of Scans 50
'Units Absorbance
'Thermistor 46.46
Wavelength	Absorbance	Normalized	100%	dark	Raw 1	Native Wvl	Native Norm	Native 100%	Native dark	Native 1
908.10000	0.22325	0.59807	3514.15951	877.71219	2453.55414	906.26400	0.58925	3596.00000	879.00000	2480.00000
914.29435	0.20354	0.62583	3281.25113	863.65831	2376.91696	912.45437	0.61806	3339.00000	870.00000	2396.00000
920.48871	0.18513	0.65293	3227.40662	877.32414	2411.82444	918.64474	0.64428	3216.00000	863.00000	2379.00000
926.68306	0.16702	0.68074	3307.28228	905.48228	2540.33080	924.83511	0.67325	3291.00000	910.00000	2513.00000
932.87742	0.15090	0.70648	3382.42130	864.28145	2643.43077	931.02548	0.69794	3345.00000	872.00000	2598.00000
939.07177	0.13339	0.73555	3608.15965	881.02078	2886.99718	937.21585	0.72751	3528.00000	871.00000	2804.00000
945.26613	0.12226	0.75464	3846.64039	885.69520	3120.07040	943.40622	0.75026	3789.00000	894.00000	3066.00000
951.46048	0.11717	0.76354	4004.44998	860.87297	3261.14196	949.59659	0.76147	3954.00000	860.00000	3216.00000
957.65484	0.11502	0.76733	4209.47249	887.01493	3436.42718	955.78696	0.76671	4143.00000	881.00000	3382.00000
963.84919	0.11498	0.76740	4374.85740	871.56767	3559.98193	961.97733	0.76756	4341.00000	882.00000	3537.00000
970.04355	0.11511	0.76717	4520.56130	886.05989	3674.45842	968.16770	0.76713	4456.00000	866.00000	3620.00000
976.23790	0.11737	0.76318	4717.71427	911.39747	3816.13264	974.35807	0.76552	4679.00000	926.00000	3799.00000
982.43226	0.12077	0.75724	4843.76664	857.92770	3876.33595	980.54844	0.75776	4787.00000	857.00000	3835.00000
988.62661	0.12031	0.75804	5076.97721	894.34516	4064.84594	986.73881	0.75825	5011.00000	891.00000	4015.00000
994.82097	0.12166	0.75568	5297.39601	869.00992	4215.47971	992.92918	0.75627	5222.00000	877.00000	4163.00000
1001.01532	0.12176	0.75551	5554.06756	873.41459	4409.71762	999.11955	0.75531	5480.00000	866.00000	4351.00000
1007.20968	0.12103	0.75678	5827.05497	883.56657	4624.62954	1005.30992	0.75635	5731.00000	888.00000	4551.00000
1013.40403	0.11767	0.76265	6120.28754	870.80251	4874.33981	1011.50029	0.75971	6045.00000	868.00000	4801.00000
1019.59839	0.11175	0.77313	6348.68404	901.94795	5112.97377	1017.69066	0.77050	6270.00000	893.00000	5036.00000
1025.79274	0.10911	0.77784	6618.61076	896.05363	5347.23235	1023.88103	0.77675	6540.00000	905.00000	5282.00000
1031.98710	0.10677	0.78204	6878.79036	877.64868	5570.86694	1030.07140	0.78043	6792.00000	876.00000	5493.00000
1038.18145	0.10378	0.78745	7153.19229	875.20158	5818.69700	1036.26177	0.78598	7075.00000	884.00000	5750.00000
1044.37581	0.10140	0.79178	7435.03734	854.54502	6064.92735	1042.45214	0.79034	7334.00000	852.00000	5975.00000
1050.57016	0.09943	0.79538	7778.63216	881.04291	6367.12646	1048.64251	0.79462	7678.00000	876.00000	6281.00000
1056.76452	0.09822	0.79759	8066.37003	871.22278	6610.05198	1054.83288	0.79668	7979.00000	877.00000	6535.00000
1062.95887	0.09647	0.80081	8367.94643	870.25694	6874.49930	1061.02325	0.79995	8268.00000	865.00000	6787.00000
1069.15323	0.09563	0.80237	8674.59951	877.92605	7133.69237	1067.21362	0.80205	8586.00000	882.00000	7061.00000
1075.34758	0.09486	0.80379	8958.19691	861.24829	7369.57836	1073.40399	0.80315	8863.00000	862.00000	7288.00000
1081.54194	0.09377	0.80581	9269.61857	868.88623	7638.24835	1079.59436	0.80534	9175.00000	868.00000	7558.00000
1087.73629	0.09325	0.80677	9599.77547	889.96693	7916.80460	1085.78473	0.80646	9485.00000	877.00000	7819.00000
1093.93065	0.09315	0.80695	9958.85840	903.23915	8210.62338	1091.97510	0.80713	9855.00000	911.00000	8130.00000
1100.12500	0.09394	0.80549	10287.04131	864.70017	8454.32335	1098.16547	0.80600	10175.00000	871.00000	8370.00000
1106.31935	0.09470	0.80408	10673.09117	870.26271	8752.53438	1104.35584	0.80448	10550.00000	868.00000	8657.00000
1112.51371	0.09538	0.80283	11054.17109	867.39097	9045.63694	1110.54621	0.80326	10934.00000	870.00000	8954.00000
1118.70806	0.09653	0.80070	11440.58269	866.80701	9333.20496	1116.73658	0.80155	11315.00000	864.00000	9241.00000
1124.90242	0.09851	0.79706	11853.47185	879.92340	9626.64521	1122.92695	0.79838	11719.00000	877.00000	9533.00000
1131.09677	0.10246	0.78985	12279.20991	877.48685	9882.94442	1129.11732	0.79288	12144.00000	880.00000	9811.00000
1137.29113	0.10962	0.77693	12658.45812	855.49825	10025.70042	1135.30769	0.78146	12547.00000	865.00000	9994.00000
1143.48548	0.11876	0.76075	13049.18681	852.30684	10130.83038	1141.49806	0.76627	12906.00000	845.00000	10087.00000
1149.67984	0.12860	0.74371	13533.98158	886.77209	10292.80860	1147.68843	0.74894	13382.00000	879.00000	10243.00000
1155.87419	0.13788	0.72798	13997.40073	876.37382	10427.97858	1153.87880	0.73310	13845.00000	885.00000	10386.00000
1162.06855	0.14651	0.71365	14503.46887	861.13988	10597.06713	1160.06917	0.71777	14335.00000	860.00000	10532.00000
1168.26290	0.15271	0.70354	15009.58309	885.01032	10822.35014	1166.25954	0.70650	14853.00000	877.00000	10751.00000
1174.45726	0.15861	0.69405	15471.50866	888.01740	11009.51567	1172.44991	0.69737	15322.00000	892.00000	10955.00000
1180.65161	0.16505	0.68384	15938.18293	858.48109	11170.56223	1178.64028	0.68693	15786.00000	869.00000	11116.00000
1186.84597	0.17001	0.67607	16436.20435	853.30650	11388.38456	1184.83065	0.67832	16267.00000	848.00000	11307.00000
1193.04032	0.17363	0.67045	16954.92806	876.34677	11656.20210	1191.02102	0.67209	16791.00000	872.00000	11571.00000
1199.23468	0.17572	0.66724	17462.35109	876.98642	11943.36696	1197.21139	0.66791	17291.00000	877.00000	11840.00000
1205.42903	0.17527	0.66793	17986.83670	869.01927	12302.62669	1203.40176	0.66724	17820.00000	874.00000	12181.00000
1211.62339	0.17253	0.67215	18479.84056	863.23699	12704.21267	1209.59213	0.67050	18318.00000	861.00000	12566.00000
1217.81774	0.16869	0.67812	19014.17361	874.89956	13175.55405	1215.78250	0.67604	18829.00000	873.00000	13012.00000
1224.01210	0.16434	0.68496	19594.72563	876.04482	13697.60912	1221.97287	0.68264	19406.00000	875.00000	13525.00000
1230.20645	0.16027	0.69139	20120.20026	872.48020	14180.14810	1228.16324	0.68947	19956.00000	876.00000	14031.00000
1236.40081	0.15696	0.69669	20649.23727	886.34799	14655.15404	1234.35361	0.69495	20461.00000	874.00000	14486.00000
1242.59516	0.15436	0.70087	21186.14180	892.43754	15115.65540	1240.54398	0.69980	21027.00000	904.00000	14986.00000
1248.78952	0.15294	0.70316	21639.43707	853.74756	15469.46987	1246.73435	0.70243	21481.00000	857.00000	15344.00000
1254.98387	0.15151	0.70549	22186.10389	887.90098	15913.51161	1252.92472	0.70470	21995.00000	874.00000	15758.00000
1261.17823	0.15039	0.70732	22744.98332	890.64324	16348.54425	1259.11509	0.70685	22568.00000	900.00000	16216.00000
1267.37258	0.14971	0.70842	23243.71070	844.15789	16712.34956	1265.30546	0.70802	23078.00000	857.00000	16590.00000
1273.56694	0.14853	0.71035	23813.43146	859.99157	17165.07226	1271.49583	0.70955	23605.00000	844.00000	16994.00000
1279.76129	0.14712	0.71266	24453.54449	898.95555	17685.28320	1277.68620	0.71202	24247.00000	895.00000	17522.00000
1285.95565	0.14637	0.71389	25039.29282	882.87107	18127.84386	1283.87657	0.71355	24843.00000	888.00000	17981.00000
1292.15000	0.14596	0.71456	25633.20976	874.48479	18565.98884	1290.06694	0.71440	25432.00000	877.00000	18419.00000
1298.34435	0.14614	0.71427	26275.57944	875.36170	19017.93846	1296.25731	0.71453	26049.00000	873.00000	18862.00000
1304.53871	0.14734	0.71230	26910.28272	864.72671	19416.99041	1302.44769	0.71317	26712.00000	874.00000	19301.00000
1310.73306	0.14961	0.70859	27539.76334	865.28161	19766.53358	1308.63806	0.71002	27304.00000	854.00000	19634.00000
1316.92742	0.15312	0.70288	28270.79252	884.98210	20133.83236	1314.82843	0.70511	28032.00000	890.00000	20028.00000
1323.12177	0.15811	0.69485	28955.06915	860.68820	20382.18546	1321.01880	0.69778	28719.00000	862.00000	20300.00000
1329.31613	0.16438	0.68489	29633.32179	868.03484	20569.14745	1327.20917	0.68853	29411.00000	869.00000	20521.00000
1335.51048	0.17180	0.67329	30302.79696	861.31771	20683.81971	1333.39954	0.67733	30064.00000	861.00000	20641.00000
1341.70484	0.17972	0.66111	31040.63710	883.35260	20820.73235	1339.58991	0.66532	30788.00000	873.00000	20776.00000
1347.89919	0.18794	0.64873	31710.62252	886.82909	20883.19447	1345.78028	0.65295	31498.00000	894.00000	20877.00000
1354.09355	0.19596	0.63685	32368.46417	858.22619	20925.44643	1351.97065	0.64081	32123.00000	864.00000	20895.00000
1360.28790	0.20343	0.62600	33079.41609	863.88248	21030.95784	1358.16102	0.62963	32852.00000	860.00000	21003.00000
1366.48226	0.21084	0.61540	33719.60962	862.84716	21082.79544	1364.35139	0.61911	33491.00000	867.00000	21065.00000
1372.67661	0.21923	0.60363	34419.13569	848.00380	21112.36683	1370.54176	0.60789	34178.00000	851.00000	21110.00000
1378.87097	0.22914	0.59001	34997.78982	865.89108	21003.95065	1376.73213	0.59493	34829.00000	855.00000	21067.00000
1385.06532	0.24151	0.57345	35282.55609	871.96034	20604.78418	1382.92250	0.57967	35216.00000	879.00000	20783.00000
1391.25968	0.25777	0.55237	35454.56849	868.59113	19972.57867	1389.11287	0.56019	35383.00000	859.00000	20199.00000
1397.45403	0.27859	0.52651	35619.60134	886.37628	19174.30877	1395.30324	0.53606	35583.00000	891.00000	19488.00000
1403.64839	0.30371	0.49693	35834.55471	865.31191	18242.42931	1401.49361	0.50743	35714.00000	866.00000	18549.00000
1409.84274	0.33113	0.46652	36489.35769	873.82043	17489.11053	1407.68398	0.47708	36214.00000	874.00000	17734.00000
1416.03710	0.35889	0.43763	37454.71523	877.22955	16884.78547	1413.87435	0.44739	37098.00000	872.00000	17079.00000
1422.23145	0.38465	0.41243	38501.95566	886.60375	16400.48711	1420.06472	0.42074	38137.00000	888.00000	16560.00000
1428.42581	0.40636	0.39232	39622.23895	874.12429	16075.42267	1426.25509	0.39871	39208.00000	877.00000	16160.00000
1434.62016	0.42292	0.37764	40761.26708	872.53526	15936.38705	1432.44546	0.38223	40388.00000	873.00000	15977.00000
1440.81452	0.43447	0.36773	41685.67119	872.92918	15880.93003	1438.63583	0.37069	41375.00000	872.00000	15886.00000
1447.00887	0.44124	0.36205	42697.97010	892.09592	16027.75387	1444.82620	0.36363	42303.00000	882.00000	15944.00000
1453.20323	0.44510	0.35884	43743.69350	881.19502	16261.82111	1451.01657	0.35985	43420.00000	897.00000	16199.00000
1459.39758	0.44708	0.35720	44616.30730	861.83262	16491.16508	1457.20694	0.35749	44284.00000	854.00000	16380.00000
1465.59194	0.44676	0.35747	45681.51347	893.65188	16904.01692	1463.39731	0.35727	45294.00000	891.00000	16755.00000
1471.78629	0.44518	0.35877	46691.44736	880.41136	17316.13984	1469.58768	0.35815	46358.00000	883.00000	17170.00000
1477.98065	0.44215	0.36128	47539.84378	864.96700	17727.80886	1475.77805	0.36028	47244.00000	875.00000	17581.00000
1484.17500	0.43777	0.36494	48453.02745	858.97393	18228.27462	1481.96842	0.36347	48107.00000	852.00000	18028.00000
1490.36935	0.43239	0.36949	49314.35954	885.82004	18779.67297	1488.15879	0.36786	49049.00000	881.00000	18600.00000
1496.56371	0.42692	0.37418	50001.49019	880.23876	19260.48286	1494.34916	0.37247	49741.00000	883.00000	19081.00000
1502.75806	0.42138	0.37899	50705.77350	864.52184	19753.55508	1500.53953	0.37728	50474.00000	872.00000	19586.00000
1508.95242	0.41592	0.38378	51385.78695	891.73536	20270.38787	1506.72990	0.38204	51118.00000	869.00000	20066.00000
1515.14677	0.41102	0.38814	52107.85403	893.71978	20771.63438	1512.92027	0.38671	51872.00000	917.00000	20622.00000
1521.34113	0.40679	0.39193	52815.89525	851.69957	21218.02946	1519.11064	0.39051	52530.00000	844.00000	21028.00000
1527.53548	0.40293	0.39543	53548.61369	896.26537	21716.45706	1525.30101	0.39433	53323.00000	892.00000	21567.00000
1533.72984	0.40016	0.39796	54149.95370	878.59624	22078.77668	1531.49138	0.39707	53910.00000	882.00000	21938.00000
1539.92419	0.39795	0.39999	54832.12801	868.84378	22453.71916	1537.68175	0.39937	54600.00000	876.00000	22332.00000
1546.11855	0.39642	0.40140	55451.13851	864.00141	22775.43781	1543.87212	0.40089	55220.00000	859.00000	22652.00000
1552.31290	0.39507	0.40266	56042.33834	881.37311	23092.22615	1550.06249	0.40225	55845.00000	879.00000	22989.00000
1558.50726	0.39390	0.40374	56662.34212	881.97129	23402.93909	1556.25286	0.40332	56406.00000	880.00000	23275.00000
1564.70161	0.39276	0.40480	57241.63462	881.81730	23696.29791	1562.44323	0.40446	57084.00000	885.00000	23615.00000
1570.89597	0.39146	0.40602	57652.97230	868.16681	23923.80772	1568.63360	0.40547	57470.00000	872.00000	23821.00000
1577.09032	0.38948	0.40787	58206.47218	874.43948	24258.32303	1574.82397	0.40716	58018.00000	869.00000	24138.00000
1583.28468	0.38717	0.41004	58673.40818	887.42953	24582.05817	1581.01434	0.40918	58502.00000	885.00000	24461.00000
1589.47903	0.38427	0.41279	59041.87130	888.83630	24893.81720	1587.20471	0.41171	58934.00000	888.00000	24786.00000
1595.67339	0.38071	0.41618	59358.10218	876.53006	25215.74354	1593.39508	0.41486	59218.00000	885.00000	25085.00000
1601.86774	0.37639	0.42035	59778.17203	883.72242	25640.13946	1599.58545	0.41871	59632.00000	871.00000	25475.00000
1608.06210	0.37151	0.42510	60103.05486	896.34115	26065.05047	1605.77582	0.42333	59993.00000	904.00000	25918.00000
1614.25645	0.36617	0.43035	60403.71328	879.81794	26496.27148	1611.96619	0.42830	60288.00000	876.00000	26322.00000
1620.45081	0.36049	0.43603	60606.54759	887.56155	26926.61826	1618.15656	0.43397	60563.00000	893.00000	26788.00000
1626.64516	0.35491	0.44166	60733.55595	878.59339	27314.27669	1624.34693	0.43951	60663.00000	874.00000	27152.00000
1632.83952	0.34923	0.44747	60986.21919	889.52033	27781.21787	1630.53730	0.44535	60896.00000	892.00000	27615.00000
1639.03387	0.34391	0.45299	61048.69415	866.62659	28128.17649	1636.72767	0.45095	61067.00000	874.00000	28018.00000
1645.22823	0.33877	0.45838	60863.78586	869.32764	28370.00877	1642.91804	0.45639	60949.00000	864.00000	28286.00000
1651.42258	0.33385	0.46361	59805.79968	899.77194	28208.76951	1649.10841	0.46168	60411.00000	887.00000	28368.00000
1657.61694	0.32944	0.46834	57584.63778	905.33477	27450.09454	1655.29878	0.46666	58428.00000	911.00000	27752.00000
1663.81129	0.32506	0.47309	56481.05190	890.63733	27191.23882	1661.48915	0.47118	56625.00000	891.00000	27152.00000
1670.00565	0.32027	0.47833	55048.67016	902.23167	26800.55253	1667.67952	0.47641	56028.00000	899.00000	27163.00000
1676.20000	0.31582	0.48326	51378.45954	875.98122	25283.81817	1673.86989	0.48141	52735.00000	893.00000	25850.00000
0.00000	0.00000	0.00000	0.00000	0.00000	0.00000	1680.06026	0.48660	48849.00000	859.00000	24211.00000
0.00000	0.00000	0.00000	0.00000	0.00000	0.00000	1686.25063	0.49172	44181.00000	908.00000	22186.00000
0.00000	0.00000	0.00000	0.00000	0.00000	0.00000	1692.44100	0.49172	44181.00000	908.00000	22186.00000
