'File 土豆淀粉超市_2_2016一月28_1052.xls
'Part ID 土豆淀粉超市_2
'Scan Created 2016/1/28 10:52:31
'Instrument S1-00205
'Version 1.5.7
'Integration Time 10100 s
'Number of Scans 50
'Units Absorbance
'Thermistor 46.46
Wavelength	Absorbance	Normalized	100%	dark	Raw 1	Native Wvl	Native Norm	Native 100%	Native dark	Native 1
908.10000	0.22517	0.59543	3514.15951	877.71219	2446.60637	906.26400	0.58668	3596.00000	879.00000	2473.00000
914.29435	0.20560	0.62288	3281.25113	863.65831	2369.77636	912.45437	0.61523	3339.00000	870.00000	2389.00000
920.48871	0.18696	0.65019	3227.40662	877.32414	2405.38852	918.64474	0.64131	3216.00000	863.00000	2372.00000
926.68306	0.16832	0.67870	3307.28228	905.48228	2535.42920	924.83511	0.67115	3291.00000	910.00000	2508.00000
932.87742	0.15204	0.70463	3382.42130	864.28145	2638.80890	931.02548	0.69592	3345.00000	872.00000	2593.00000
939.07177	0.13436	0.73390	3608.15965	881.02078	2882.44363	937.21585	0.72601	3528.00000	871.00000	2800.00000
945.26613	0.12337	0.75271	3846.64039	885.69520	3114.38699	943.40622	0.74819	3789.00000	894.00000	3060.00000
951.46048	0.11786	0.76233	4004.44998	860.87297	3257.32404	949.59659	0.76018	3954.00000	860.00000	3212.00000
957.65484	0.11603	0.76554	4209.47249	887.01493	3430.49354	955.78696	0.76517	4143.00000	881.00000	3377.00000
963.84919	0.11635	0.76499	4374.85740	871.56767	3551.50416	961.97733	0.76525	4341.00000	882.00000	3529.00000
970.04355	0.11621	0.76522	4520.56130	886.05989	3667.38116	968.16770	0.76490	4456.00000	866.00000	3612.00000
976.23790	0.11842	0.76134	4717.71427	911.39747	3809.06348	974.35807	0.76392	4679.00000	926.00000	3793.00000
982.43226	0.12219	0.75477	4843.76664	857.92770	3866.54329	980.54844	0.75522	4787.00000	857.00000	3825.00000
988.62661	0.12142	0.75609	5076.97721	894.34516	4056.64685	986.73881	0.75631	5011.00000	891.00000	4007.00000
994.82097	0.12302	0.75332	5297.39601	869.00992	4205.09265	992.92918	0.75397	5222.00000	877.00000	4153.00000
1001.01532	0.12320	0.75300	5554.06756	873.41459	4397.93694	999.11955	0.75293	5480.00000	866.00000	4340.00000
1007.20968	0.12248	0.75426	5827.05497	883.56657	4612.24769	1005.30992	0.75367	5731.00000	888.00000	4538.00000
1013.40403	0.11896	0.76040	6120.28754	870.80251	4862.48818	1011.50029	0.75758	6045.00000	868.00000	4790.00000
1019.59839	0.11335	0.77028	6348.68404	901.94795	5097.50329	1017.69066	0.76771	6270.00000	893.00000	5021.00000
1025.79274	0.11057	0.77523	6618.61076	896.05363	5332.29300	1023.88103	0.77409	6540.00000	905.00000	5267.00000
1031.98710	0.10814	0.77958	6878.79036	877.64868	5556.12522	1030.07140	0.77789	6792.00000	876.00000	5478.00000
1038.18145	0.10501	0.78522	7153.19229	875.20158	5804.72987	1036.26177	0.78372	7075.00000	884.00000	5736.00000
1044.37581	0.10273	0.78935	7435.03734	854.54502	6048.95768	1042.45214	0.78803	7334.00000	852.00000	5960.00000
1050.57016	0.10088	0.79272	7778.63216	881.04291	6348.81393	1048.64251	0.79197	7678.00000	876.00000	6263.00000
1056.76452	0.09957	0.79511	8066.37003	871.22278	6592.25386	1054.83288	0.79414	7979.00000	877.00000	6517.00000
1062.95887	0.09781	0.79834	8367.94643	870.25694	6855.94242	1061.02325	0.79751	8268.00000	865.00000	6769.00000
1069.15323	0.09704	0.79976	8674.59951	877.92605	7113.34620	1067.21362	0.79945	8586.00000	882.00000	7041.00000
1075.34758	0.09630	0.80113	8958.19691	861.24829	7347.96381	1073.40399	0.80052	8863.00000	862.00000	7267.00000
1081.54194	0.09511	0.80331	9269.61857	868.88623	7617.29591	1079.59436	0.80270	9175.00000	868.00000	7536.00000
1087.73629	0.09448	0.80449	9599.77547	889.96693	7896.96036	1085.78473	0.80425	9485.00000	877.00000	7800.00000
1093.93065	0.09454	0.80437	9958.85840	903.23915	8187.29342	1091.97510	0.80456	9855.00000	911.00000	8107.00000
1100.12500	0.09516	0.80323	10287.04131	864.70017	8432.98744	1098.16547	0.80363	10175.00000	871.00000	8348.00000
1106.31935	0.09589	0.80189	10673.09117	870.26271	8731.01042	1104.35584	0.80231	10550.00000	868.00000	8636.00000
1112.51371	0.09662	0.80054	11054.17109	867.39097	9022.36987	1110.54621	0.80097	10934.00000	870.00000	8931.00000
1118.70806	0.09770	0.79854	11440.58269	866.80701	9310.40155	1116.73658	0.79935	11315.00000	864.00000	9218.00000
1124.90242	0.09979	0.79471	11853.47185	879.92340	9600.76527	1122.92695	0.79616	11719.00000	877.00000	9509.00000
1131.09677	0.10383	0.78736	12279.20991	877.48685	9854.69388	1129.11732	0.79031	12144.00000	880.00000	9782.00000
1137.29113	0.11090	0.77463	12658.45812	855.49825	9998.59547	1135.30769	0.77923	12547.00000	865.00000	9968.00000
1143.48548	0.12023	0.75818	13049.18681	852.30684	10099.53981	1141.49806	0.76370	12906.00000	845.00000	10056.00000
1149.67984	0.13009	0.74115	13533.98158	886.77209	10260.44194	1147.68843	0.74646	13382.00000	879.00000	10212.00000
1155.87419	0.13964	0.72503	13997.40073	876.37382	10389.34570	1153.87880	0.73025	13845.00000	885.00000	10349.00000
1162.06855	0.14840	0.71056	14503.46887	861.13988	10554.85283	1160.06917	0.71473	14335.00000	860.00000	10491.00000
1168.26290	0.15473	0.70027	15009.58309	885.01032	10776.12281	1166.25954	0.70328	14853.00000	877.00000	10706.00000
1174.45726	0.16069	0.69073	15471.50866	888.01740	10961.22747	1172.44991	0.69404	15322.00000	892.00000	10907.00000
1180.65161	0.16706	0.68067	15938.18293	858.48109	11122.87075	1178.64028	0.68372	15786.00000	869.00000	11068.00000
1186.84597	0.17204	0.67291	16436.20435	853.30650	11339.26456	1184.83065	0.67521	16267.00000	848.00000	11259.00000
1193.04032	0.17586	0.66702	16954.92806	876.34677	11601.10311	1191.02102	0.66876	16791.00000	872.00000	11518.00000
1199.23468	0.17791	0.66388	17462.35109	876.98642	11887.64399	1197.21139	0.66443	17291.00000	877.00000	11783.00000
1205.42903	0.17732	0.66478	17986.83670	869.01927	12248.58814	1203.40176	0.66411	17820.00000	874.00000	12128.00000
1211.62339	0.17469	0.66883	18479.84056	863.23699	12645.69993	1209.59213	0.66718	18318.00000	861.00000	12508.00000
1217.81774	0.17076	0.67490	19014.17361	874.89956	13117.09138	1215.78250	0.67281	18829.00000	873.00000	12954.00000
1224.01210	0.16638	0.68175	19594.72563	876.04482	13637.49361	1221.97287	0.67940	19406.00000	875.00000	13465.00000
1230.20645	0.16226	0.68824	20120.20026	872.48020	14119.53251	1228.16324	0.68632	19956.00000	876.00000	13971.00000
1236.40081	0.15906	0.69332	20649.23727	886.34799	14588.53044	1234.35361	0.69168	20461.00000	874.00000	14422.00000
1242.59516	0.15647	0.69747	21186.14180	892.43754	15046.62710	1240.54398	0.69632	21027.00000	904.00000	14916.00000
1248.78952	0.15493	0.69996	21639.43707	853.74756	15402.86009	1246.73435	0.69923	21481.00000	857.00000	15278.00000
1254.98387	0.15356	0.70216	22186.10389	887.90098	15842.73233	1252.92472	0.70139	21995.00000	874.00000	15688.00000
1261.17823	0.15240	0.70405	22744.98332	890.64324	16277.13167	1259.11509	0.70357	22568.00000	900.00000	16145.00000
1267.37258	0.15174	0.70512	23243.71070	844.15789	16638.48255	1265.30546	0.70474	23078.00000	857.00000	16517.00000
1273.56694	0.15053	0.70708	23813.43146	859.99157	17090.02152	1271.49583	0.70625	23605.00000	844.00000	16919.00000
1279.76129	0.14907	0.70946	24453.54449	898.95555	17609.86802	1277.68620	0.70880	24247.00000	895.00000	17447.00000
1285.95565	0.14834	0.71066	25039.29282	882.87107	18049.94343	1283.87657	0.71033	24843.00000	888.00000	17904.00000
1292.15000	0.14791	0.71137	25633.20976	874.48479	18487.05274	1290.06694	0.71118	25432.00000	877.00000	18340.00000
1298.34435	0.14806	0.71112	26275.57944	875.36170	18938.01431	1296.25731	0.71139	26049.00000	873.00000	18783.00000
1304.53871	0.14932	0.70905	26910.28272	864.72671	19332.36342	1302.44769	0.70996	26712.00000	874.00000	19218.00000
1310.73306	0.15162	0.70531	27539.76334	865.28161	19678.97609	1308.63806	0.70673	27304.00000	854.00000	19547.00000
1316.92742	0.15512	0.69965	28270.79252	884.98210	20045.49065	1314.82843	0.70186	28032.00000	890.00000	19940.00000
1323.12177	0.16015	0.69160	28955.06915	860.68820	20290.67185	1321.01880	0.69455	28719.00000	862.00000	20210.00000
1329.31613	0.16646	0.68162	29633.32179	868.03484	20474.97262	1327.20917	0.68524	29411.00000	869.00000	20427.00000
1335.51048	0.17388	0.67007	30302.79696	861.31771	20589.06351	1333.39954	0.67411	30064.00000	861.00000	20547.00000
1341.70484	0.18186	0.65787	31040.63710	883.35260	20723.01344	1339.58991	0.66208	30788.00000	873.00000	20679.00000
1347.89919	0.19007	0.64555	31710.62252	886.82909	20785.38935	1345.78028	0.64975	31498.00000	894.00000	20779.00000
1354.09355	0.19811	0.63372	32368.46417	858.22619	20826.58917	1351.97065	0.63767	32123.00000	864.00000	20797.00000
1360.28790	0.20557	0.62292	33079.41609	863.88248	20931.63174	1358.16102	0.62650	32852.00000	860.00000	20903.00000
1366.48226	0.21302	0.61232	33719.60962	862.84716	20981.53911	1364.35139	0.61608	33491.00000	867.00000	20966.00000
1372.67661	0.22151	0.60047	34419.13569	848.00380	21006.37168	1370.54176	0.60470	34178.00000	851.00000	21004.00000
1378.87097	0.23140	0.58695	34997.78982	865.89108	20899.69654	1376.73213	0.59186	34829.00000	855.00000	20963.00000
1385.06532	0.24385	0.57037	35282.55609	871.96034	20498.73379	1382.92250	0.57658	35216.00000	879.00000	20677.00000
1391.25968	0.26004	0.54949	35454.56849	868.59113	19872.96147	1389.11287	0.55721	35383.00000	859.00000	20096.00000
1397.45403	0.28076	0.52390	35619.60134	886.37628	19083.33839	1395.30324	0.53338	35583.00000	891.00000	19395.00000
1403.64839	0.30591	0.49441	35834.55471	865.31191	18154.55267	1401.49361	0.50488	35714.00000	866.00000	18460.00000
1409.84274	0.33337	0.46412	36489.35769	873.82043	17403.44686	1407.68398	0.47465	36214.00000	874.00000	17648.00000
1416.03710	0.36124	0.43527	37454.71523	877.22955	16798.44285	1413.87435	0.44501	37098.00000	872.00000	16993.00000
1422.23145	0.38710	0.41011	38501.95566	886.60375	16313.02017	1420.06472	0.41840	38137.00000	888.00000	16473.00000
1428.42581	0.40910	0.38985	39622.23895	874.12429	15980.01439	1426.25509	0.39634	39208.00000	877.00000	16069.00000
1434.62016	0.42600	0.37498	40761.26708	872.53526	15830.01482	1432.44546	0.37960	40388.00000	873.00000	15873.00000
1440.81452	0.43772	0.36499	41685.67119	872.92918	15769.25834	1438.63583	0.36800	41375.00000	872.00000	15777.00000
1447.00887	0.44479	0.35909	42697.97010	892.09592	15904.24273	1444.82620	0.36076	42303.00000	882.00000	15825.00000
1453.20323	0.44890	0.35571	43743.69350	881.19502	16127.87250	1451.01657	0.35677	43420.00000	897.00000	16068.00000
1459.39758	0.45093	0.35406	44616.30730	861.83262	16353.51686	1457.20694	0.35434	44284.00000	854.00000	16243.00000
1465.59194	0.45066	0.35427	45681.51347	893.65188	16760.64053	1463.39731	0.35412	45294.00000	891.00000	16615.00000
1471.78629	0.44928	0.35540	46691.44736	880.41136	17161.91800	1469.58768	0.35483	46358.00000	883.00000	17019.00000
1477.98065	0.44628	0.35787	47539.84378	864.96700	17568.36738	1475.77805	0.35688	47244.00000	875.00000	17423.00000
1484.17500	0.44189	0.36150	48453.02745	858.97393	18064.43611	1481.96842	0.36005	48107.00000	852.00000	17866.00000
1490.36935	0.43655	0.36597	49314.35954	885.82004	18609.05546	1488.15879	0.36437	49049.00000	881.00000	18432.00000
1496.56371	0.43112	0.37058	50001.49019	880.23876	19083.66501	1494.34916	0.36889	49741.00000	883.00000	18906.00000
1502.75806	0.42553	0.37538	50705.77350	864.52184	19573.70198	1500.53953	0.37367	50474.00000	872.00000	19407.00000
1508.95242	0.42006	0.38013	51385.78695	891.73536	20086.29191	1506.72990	0.37842	51118.00000	869.00000	19884.00000
1515.14677	0.41517	0.38444	52107.85403	893.71978	20582.29477	1512.92027	0.38302	51872.00000	917.00000	20434.00000
1521.34113	0.41091	0.38823	52815.89525	851.69957	21025.79924	1519.11064	0.38682	52530.00000	844.00000	20837.00000
1527.53548	0.40700	0.39174	53548.61369	896.26537	21522.37435	1525.30101	0.39063	53323.00000	892.00000	21373.00000
1533.72984	0.40417	0.39431	54149.95370	878.59624	21883.97990	1531.49138	0.39341	53910.00000	882.00000	21744.00000
1539.92419	0.40195	0.39632	54832.12801	868.84378	22255.69763	1537.68175	0.39571	54600.00000	876.00000	22135.00000
1546.11855	0.40044	0.39771	55451.13851	864.00141	22573.75156	1543.87212	0.39721	55220.00000	859.00000	22452.00000
1552.31290	0.39907	0.39896	56042.33834	881.37311	22888.21809	1550.06249	0.39854	55845.00000	879.00000	22785.00000
1558.50726	0.39788	0.40006	56662.34212	881.97129	23197.49658	1556.25286	0.39965	56406.00000	880.00000	23071.00000
1564.70161	0.39673	0.40111	57241.63462	881.81730	23488.50123	1562.44323	0.40075	57084.00000	885.00000	23407.00000
1570.89597	0.39544	0.40231	57652.97230	868.16681	23713.11954	1568.63360	0.40180	57470.00000	872.00000	23613.00000
1577.09032	0.39347	0.40413	58206.47218	874.43948	24044.22480	1574.82397	0.40340	58018.00000	869.00000	23923.00000
1583.28468	0.39112	0.40633	58673.40818	887.42953	24367.73632	1581.01434	0.40551	58502.00000	885.00000	24249.00000
1589.47903	0.38828	0.40900	59041.87130	888.83630	24673.19738	1587.20471	0.40792	58934.00000	888.00000	24566.00000
1595.67339	0.38468	0.41240	59358.10218	876.53006	24994.32442	1593.39508	0.41109	59218.00000	885.00000	24865.00000
1601.86774	0.38037	0.41652	59778.17203	883.72242	25414.33092	1599.58545	0.41488	59632.00000	871.00000	25250.00000
1608.06210	0.37544	0.42127	60103.05486	896.34115	25838.39978	1605.77582	0.41950	59993.00000	904.00000	25692.00000
1614.25645	0.37010	0.42648	60403.71328	879.81794	26265.42962	1611.96619	0.42444	60288.00000	876.00000	26093.00000
1620.45081	0.36443	0.43209	60606.54759	887.56155	26691.18872	1618.15656	0.43005	60563.00000	893.00000	26554.00000
1626.64516	0.35879	0.43774	60733.55595	878.59339	27079.39760	1624.34693	0.43557	60663.00000	874.00000	26916.00000
1632.83952	0.35302	0.44359	60986.21919	889.52033	27547.78232	1630.53730	0.44147	60896.00000	892.00000	27382.00000
1639.03387	0.34771	0.44904	61048.69415	866.62659	27890.61195	1636.72767	0.44703	61067.00000	874.00000	27782.00000
1645.22823	0.34256	0.45440	60863.78586	869.32764	28131.25804	1642.91804	0.45241	60949.00000	864.00000	28047.00000
1651.42258	0.33761	0.45961	59805.79968	899.77194	27973.20765	1649.10841	0.45770	60411.00000	887.00000	28131.00000
1657.61694	0.33320	0.46430	57584.63778	905.33477	27221.10052	1655.29878	0.46263	58428.00000	911.00000	27520.00000
1663.81129	0.32883	0.46900	56481.05190	890.63733	26964.02405	1661.48915	0.46713	56625.00000	891.00000	26926.00000
1670.00565	0.32408	0.47415	55048.67016	902.23167	26574.09211	1667.67952	0.47226	56028.00000	899.00000	26934.00000
1676.20000	0.31972	0.47894	51378.45954	875.98122	25065.93171	1673.86989	0.47716	52735.00000	893.00000	25630.00000
0.00000	0.00000	0.00000	0.00000	0.00000	0.00000	1680.06026	0.48214	48849.00000	859.00000	23997.00000
0.00000	0.00000	0.00000	0.00000	0.00000	0.00000	1686.25063	0.48709	44181.00000	908.00000	21986.00000
0.00000	0.00000	0.00000	0.00000	0.00000	0.00000	1692.44100	0.48709	44181.00000	908.00000	21986.00000
