'File 土豆淀粉超市_3_2016一月28_1052.xls
'Part ID 土豆淀粉超市_3
'Scan Created 2016/1/28 10:52:52
'Instrument S1-00205
'Version 1.5.7
'Integration Time 10100 s
'Number of Scans 50
'Units Absorbance
'Thermistor 46.46
Wavelength	Absorbance	Normalized	100%	dark	Raw 1	Native Wvl	Native Norm	Native 100%	Native dark	Native 1
908.10000	0.22150	0.60048	3514.15951	877.71219	2459.86534	906.26400	0.59146	3596.00000	879.00000	2486.00000
914.29435	0.20210	0.62792	3281.25113	863.65831	2382.00041	912.45437	0.62049	3339.00000	870.00000	2402.00000
920.48871	0.18425	0.65426	3227.40662	877.32414	2414.91968	918.64474	0.64556	3216.00000	863.00000	2382.00000
926.68306	0.16548	0.68315	3307.28228	905.48228	2546.14894	924.83511	0.67535	3291.00000	910.00000	2518.00000
932.87742	0.14969	0.70846	3382.42130	864.28145	2648.37215	931.02548	0.70036	3345.00000	872.00000	2604.00000
939.07177	0.13304	0.73614	3608.15965	881.02078	2888.64484	937.21585	0.72826	3528.00000	871.00000	2806.00000
945.26613	0.12147	0.75601	3846.64039	885.69520	3124.11266	943.40622	0.75130	3789.00000	894.00000	3069.00000
951.46048	0.11605	0.76550	4004.44998	860.87297	3267.30945	949.59659	0.76341	3954.00000	860.00000	3222.00000
957.65484	0.11433	0.76855	4209.47249	887.01493	3440.48384	955.78696	0.76824	4143.00000	881.00000	3387.00000
963.84919	0.11472	0.76785	4374.85740	871.56767	3561.55768	961.97733	0.76814	4341.00000	882.00000	3539.00000
970.04355	0.11469	0.76792	4520.56130	886.05989	3677.17639	968.16770	0.76769	4456.00000	866.00000	3622.00000
976.23790	0.11680	0.76418	4717.71427	911.39747	3819.91460	974.35807	0.76659	4679.00000	926.00000	3803.00000
982.43226	0.12028	0.75809	4843.76664	857.92770	3879.73891	980.54844	0.75852	4787.00000	857.00000	3838.00000
988.62661	0.11959	0.75929	5076.97721	894.34516	4070.05858	986.73881	0.75947	5011.00000	891.00000	4020.00000
994.82097	0.12101	0.75682	5297.39601	869.00992	4220.55357	992.92918	0.75742	5222.00000	877.00000	4168.00000
1001.01532	0.12121	0.75647	5554.06756	873.41459	4414.17961	999.11955	0.75639	5480.00000	866.00000	4356.00000
1007.20968	0.12046	0.75778	5827.05497	883.56657	4629.65367	1005.30992	0.75718	5731.00000	888.00000	4555.00000
1013.40403	0.11701	0.76382	6120.28754	870.80251	4880.43322	1011.50029	0.76106	6045.00000	868.00000	4808.00000
1019.59839	0.11144	0.77368	6348.68404	901.94795	5116.04387	1017.69066	0.77106	6270.00000	893.00000	5039.00000
1025.79274	0.10859	0.77876	6618.61076	896.05363	5352.48777	1023.88103	0.77764	6540.00000	905.00000	5287.00000
1031.98710	0.10628	0.78292	6878.79036	877.64868	5576.14389	1030.07140	0.78127	6792.00000	876.00000	5498.00000
1038.18145	0.10328	0.78836	7153.19229	875.20158	5824.42992	1036.26177	0.78695	7075.00000	884.00000	5756.00000
1044.37581	0.10114	0.79225	7435.03734	854.54502	6068.03972	1042.45214	0.79096	7334.00000	852.00000	5979.00000
1050.57016	0.09908	0.79601	7778.63216	881.04291	6371.56159	1048.64251	0.79506	7678.00000	876.00000	6284.00000
1056.76452	0.09777	0.79843	8066.37003	871.22278	6616.03160	1054.83288	0.79766	7979.00000	877.00000	6542.00000
1062.95887	0.09636	0.80102	8367.94643	870.25694	6876.03301	1061.02325	0.80022	8268.00000	865.00000	6789.00000
1069.15323	0.09537	0.80284	8674.59951	877.92605	7137.40679	1067.21362	0.80244	8586.00000	882.00000	7064.00000
1075.34758	0.09463	0.80421	8958.19691	861.24829	7372.97297	1073.40399	0.80365	8863.00000	862.00000	7292.00000
1081.54194	0.09363	0.80606	9269.61857	868.88623	7640.31154	1079.59436	0.80559	9175.00000	868.00000	7560.00000
1087.73629	0.09305	0.80713	9599.77547	889.96693	7919.98131	1085.78473	0.80681	9485.00000	877.00000	7822.00000
1093.93065	0.09298	0.80727	9958.85840	903.23915	8213.53155	1091.97510	0.80747	9855.00000	911.00000	8133.00000
1100.12500	0.09375	0.80583	10287.04131	864.70017	8457.54591	1098.16547	0.80632	10175.00000	871.00000	8373.00000
1106.31935	0.09446	0.80453	10673.09117	870.26271	8756.95541	1104.35584	0.80490	10550.00000	868.00000	8661.00000
1112.51371	0.09511	0.80332	11054.17109	867.39097	9050.60069	1110.54621	0.80376	10934.00000	870.00000	8959.00000
1118.70806	0.09625	0.80121	11440.58269	866.80701	9338.61150	1116.73658	0.80203	11315.00000	864.00000	9246.00000
1124.90242	0.09834	0.79737	11853.47185	879.92340	9629.92229	1122.92695	0.79884	11719.00000	877.00000	9538.00000
1131.09677	0.10232	0.79010	12279.20991	877.48685	9885.87013	1129.11732	0.79297	12144.00000	880.00000	9812.00000
1137.29113	0.10926	0.77757	12658.45812	855.49825	10033.25451	1135.30769	0.78214	12547.00000	865.00000	10002.00000
1143.48548	0.11858	0.76106	13049.18681	852.30684	10134.73903	1141.49806	0.76660	12906.00000	845.00000	10091.00000
1149.67984	0.12830	0.74422	13533.98158	886.77209	10299.28730	1147.68843	0.74942	13382.00000	879.00000	10249.00000
1155.87419	0.13763	0.72840	13997.40073	876.37382	10433.49564	1153.87880	0.73356	13845.00000	885.00000	10392.00000
1162.06855	0.14628	0.71403	14503.46887	861.13988	10602.30870	1160.06917	0.71814	14335.00000	860.00000	10537.00000
1168.26290	0.15254	0.70381	15009.58309	885.01032	10826.07400	1166.25954	0.70685	14853.00000	877.00000	10756.00000
1174.45726	0.15847	0.69427	15471.50866	888.01740	11012.89954	1172.44991	0.69751	15322.00000	892.00000	10957.00000
1180.65161	0.16477	0.68428	15938.18293	858.48109	11177.22746	1178.64028	0.68740	15786.00000	869.00000	11123.00000
1186.84597	0.16986	0.67630	16436.20435	853.30650	11392.12924	1184.83065	0.67858	16267.00000	848.00000	11311.00000
1193.04032	0.17350	0.67065	16954.92806	876.34677	11659.40948	1191.02102	0.67234	16791.00000	872.00000	11575.00000
1199.23468	0.17560	0.66742	17462.35109	876.98642	11946.44269	1197.21139	0.66803	17291.00000	877.00000	11842.00000
1205.42903	0.17513	0.66815	17986.83670	869.01927	12306.24344	1203.40176	0.66753	17820.00000	874.00000	12186.00000
1211.62339	0.17252	0.67218	18479.84056	863.23699	12704.72775	1209.59213	0.67050	18318.00000	861.00000	12566.00000
1217.81774	0.16852	0.67839	19014.17361	874.89956	13180.34494	1215.78250	0.67626	18829.00000	873.00000	13016.00000
1224.01210	0.16423	0.68512	19594.72563	876.04482	13700.64531	1221.97287	0.68286	19406.00000	875.00000	13529.00000
1230.20645	0.16019	0.69153	20120.20026	872.48020	14182.80053	1228.16324	0.68957	19956.00000	876.00000	14033.00000
1236.40081	0.15685	0.69686	20649.23727	886.34799	14658.49162	1234.35361	0.69515	20461.00000	874.00000	14490.00000
1242.59516	0.15434	0.70090	21186.14180	892.43754	15116.30753	1240.54398	0.69985	21027.00000	904.00000	14987.00000
1248.78952	0.15292	0.70321	21639.43707	853.74756	15470.42249	1246.73435	0.70248	21481.00000	857.00000	15345.00000
1254.98387	0.15147	0.70556	22186.10389	887.90098	15915.12376	1252.92472	0.70475	21995.00000	874.00000	15759.00000
1261.17823	0.15030	0.70746	22744.98332	890.64324	16351.61863	1259.11509	0.70699	22568.00000	900.00000	16219.00000
1267.37258	0.14968	0.70847	23243.71070	844.15789	16713.51097	1265.30546	0.70811	23078.00000	857.00000	16592.00000
1273.56694	0.14852	0.71036	23813.43146	859.99157	17165.16226	1271.49583	0.70955	23605.00000	844.00000	16994.00000
1279.76129	0.14708	0.71271	24453.54449	898.95555	17686.61769	1277.68620	0.71206	24247.00000	895.00000	17523.00000
1285.95565	0.14637	0.71390	25039.29282	882.87107	18128.04448	1283.87657	0.71359	24843.00000	888.00000	17982.00000
1292.15000	0.14598	0.71453	25633.20976	874.48479	18565.38820	1290.06694	0.71436	25432.00000	877.00000	18418.00000
1298.34435	0.14611	0.71432	26275.57944	875.36170	19019.27248	1296.25731	0.71457	26049.00000	873.00000	18863.00000
1304.53871	0.14732	0.71232	26910.28272	864.72671	19417.63211	1302.44769	0.71321	26712.00000	874.00000	19302.00000
1310.73306	0.14961	0.70858	27539.76334	865.28161	19766.35379	1308.63806	0.71002	27304.00000	854.00000	19634.00000
1316.92742	0.15311	0.70289	28270.79252	884.98210	20134.23972	1314.82843	0.70511	28032.00000	890.00000	20028.00000
1323.12177	0.15809	0.69488	28955.06915	860.68820	20382.98053	1321.01880	0.69781	28719.00000	862.00000	20301.00000
1329.31613	0.16438	0.68489	29633.32179	868.03484	20568.98405	1327.20917	0.68853	29411.00000	869.00000	20521.00000
1335.51048	0.17180	0.67329	30302.79696	861.31771	20684.00582	1333.39954	0.67733	30064.00000	861.00000	20641.00000
1341.70484	0.17968	0.66117	31040.63710	883.35260	20822.52487	1339.58991	0.66535	30788.00000	873.00000	20777.00000
1347.89919	0.18787	0.64882	31710.62252	886.82909	20886.10275	1345.78028	0.65305	31498.00000	894.00000	20880.00000
1354.09355	0.19592	0.63691	32368.46417	858.22619	20927.15172	1351.97065	0.64087	32123.00000	864.00000	20897.00000
1360.28790	0.20337	0.62608	33079.41609	863.88248	21033.55419	1358.16102	0.62969	32852.00000	860.00000	21005.00000
1366.48226	0.21080	0.61546	33719.60962	862.84716	21084.88489	1364.35139	0.61921	33491.00000	867.00000	21068.00000
1372.67661	0.21923	0.60362	34419.13569	848.00380	21112.25108	1370.54176	0.60789	34178.00000	851.00000	21110.00000
1378.87097	0.22911	0.59005	34997.78982	865.89108	21005.52126	1376.73213	0.59495	34829.00000	855.00000	21068.00000
1385.06532	0.24146	0.57350	35282.55609	871.96034	20606.64851	1382.92250	0.57972	35216.00000	879.00000	20785.00000
1391.25968	0.25771	0.55245	35454.56849	868.59113	19975.35502	1389.11287	0.56025	35383.00000	859.00000	20201.00000
1397.45403	0.27850	0.52662	35619.60134	886.37628	19177.93207	1395.30324	0.53618	35583.00000	891.00000	19492.00000
1403.64839	0.30361	0.49704	35834.55471	865.31191	18246.40999	1401.49361	0.50752	35714.00000	866.00000	18552.00000
1409.84274	0.33098	0.46668	36489.35769	873.82043	17494.72703	1407.68398	0.47725	36214.00000	874.00000	17740.00000
1416.03710	0.35878	0.43775	37454.71523	877.22955	16888.94111	1413.87435	0.44750	37098.00000	872.00000	17083.00000
1422.23145	0.38445	0.41262	38501.95566	886.60375	16407.50261	1420.06472	0.42090	38137.00000	888.00000	16566.00000
1428.42581	0.40621	0.39245	39622.23895	874.12429	16080.76845	1426.25509	0.39889	39208.00000	877.00000	16167.00000
1434.62016	0.42287	0.37768	40761.26708	872.53526	15938.04023	1432.44546	0.38229	40388.00000	873.00000	15979.00000
1440.81452	0.43444	0.36776	41685.67119	872.92918	15882.20811	1438.63583	0.37074	41375.00000	872.00000	15888.00000
1447.00887	0.44129	0.36200	42697.97010	892.09592	16025.92272	1444.82620	0.36361	42303.00000	882.00000	15943.00000
1453.20323	0.44514	0.35880	43743.69350	881.19502	16260.42966	1451.01657	0.35981	43420.00000	897.00000	16197.00000
1459.39758	0.44707	0.35721	44616.30730	861.83262	16491.52571	1457.20694	0.35749	44284.00000	854.00000	16380.00000
1465.59194	0.44678	0.35746	45681.51347	893.65188	16903.29039	1463.39731	0.35727	45294.00000	891.00000	16755.00000
1471.78629	0.44531	0.35867	46691.44736	880.41136	17311.44921	1469.58768	0.35809	46358.00000	883.00000	17167.00000
1477.98065	0.44233	0.36113	47539.84378	864.96700	17720.73204	1475.77805	0.36013	47244.00000	875.00000	17574.00000
1484.17500	0.43791	0.36483	48453.02745	858.97393	18222.70245	1481.96842	0.36335	48107.00000	852.00000	18022.00000
1490.36935	0.43256	0.36935	49314.35954	885.82004	18772.63328	1488.15879	0.36773	49049.00000	881.00000	18594.00000
1496.56371	0.42714	0.37399	50001.49019	880.23876	19251.12491	1494.34916	0.37228	49741.00000	883.00000	19072.00000
1502.75806	0.42158	0.37881	50705.77350	864.52184	19744.86990	1500.53953	0.37710	50474.00000	872.00000	19577.00000
1508.95242	0.41609	0.38363	51385.78695	891.73536	20262.85573	1506.72990	0.38188	51118.00000	869.00000	20058.00000
1515.14677	0.41123	0.38795	52107.85403	893.71978	20761.99568	1512.92027	0.38656	51872.00000	917.00000	20614.00000
1521.34113	0.40704	0.39171	52815.89525	851.69957	21206.76153	1519.11064	0.39028	52530.00000	844.00000	21016.00000
1527.53548	0.40312	0.39526	53548.61369	896.26537	21707.25363	1525.30101	0.39416	53323.00000	892.00000	21558.00000
1533.72984	0.40039	0.39775	54149.95370	878.59624	22067.31340	1531.49138	0.39687	53910.00000	882.00000	21927.00000
1539.92419	0.39816	0.39980	54832.12801	868.84378	22443.34577	1537.68175	0.39917	54600.00000	876.00000	22321.00000
1546.11855	0.39663	0.40121	55451.13851	864.00141	22764.68346	1543.87212	0.40071	55220.00000	859.00000	22642.00000
1552.31290	0.39529	0.40245	56042.33834	881.37311	23080.67796	1550.06249	0.40203	55845.00000	879.00000	22977.00000
1558.50726	0.39408	0.40357	56662.34212	881.97129	23393.18550	1556.25286	0.40314	56406.00000	880.00000	23265.00000
1564.70161	0.39295	0.40463	57241.63462	881.81730	23686.34512	1562.44323	0.40428	57084.00000	885.00000	23605.00000
1570.89597	0.39165	0.40583	57652.97230	868.16681	23913.32296	1568.63360	0.40530	57470.00000	872.00000	23811.00000
1577.09032	0.38967	0.40769	58206.47218	874.43948	24247.86526	1574.82397	0.40697	58018.00000	869.00000	24127.00000
1583.28468	0.38738	0.40985	58673.40818	887.42953	24570.88212	1581.01434	0.40901	58502.00000	885.00000	24451.00000
1589.47903	0.38449	0.41258	59041.87130	888.83630	24881.65907	1587.20471	0.41148	58934.00000	888.00000	24773.00000
1595.67339	0.38090	0.41601	59358.10218	876.53006	25205.43744	1593.39508	0.41469	59218.00000	885.00000	25075.00000
1601.86774	0.37660	0.42015	59778.17203	883.72242	25627.94101	1599.58545	0.41851	59632.00000	871.00000	25463.00000
1608.06210	0.37173	0.42489	60103.05486	896.34115	26052.55357	1605.77582	0.42312	59993.00000	904.00000	25906.00000
1614.25645	0.36642	0.43011	60403.71328	879.81794	26481.57314	1611.96619	0.42806	60288.00000	876.00000	26308.00000
1620.45081	0.36073	0.43578	60606.54759	887.56155	26912.09317	1618.15656	0.43372	60563.00000	893.00000	26773.00000
1626.64516	0.35511	0.44146	60733.55595	878.59339	27302.27324	1624.34693	0.43929	60663.00000	874.00000	27139.00000
1632.83952	0.34941	0.44729	60986.21919	889.52033	27770.00502	1630.53730	0.44517	60896.00000	892.00000	27604.00000
1639.03387	0.34415	0.45274	61048.69415	866.62659	28113.46983	1636.72767	0.45073	61067.00000	874.00000	28005.00000
1645.22823	0.33904	0.45810	60863.78586	869.32764	28352.87306	1642.91804	0.45610	60949.00000	864.00000	28269.00000
1651.42258	0.33409	0.46335	59805.79968	899.77194	28193.49352	1649.10841	0.46141	60411.00000	887.00000	28352.00000
1657.61694	0.32970	0.46806	57584.63778	905.33477	27434.41845	1655.29878	0.46640	58428.00000	911.00000	27737.00000
1663.81129	0.32534	0.47278	56481.05190	890.63733	27174.14813	1661.48915	0.47088	56625.00000	891.00000	27135.00000
1670.00565	0.32052	0.47806	55048.67016	902.23167	26785.63020	1667.67952	0.47612	56028.00000	899.00000	27147.00000
1676.20000	0.31608	0.48297	51378.45954	875.98122	25269.08295	1673.86989	0.48113	52735.00000	893.00000	25836.00000
0.00000	0.00000	0.00000	0.00000	0.00000	0.00000	1680.06026	0.48625	48849.00000	859.00000	24194.00000
0.00000	0.00000	0.00000	0.00000	0.00000	0.00000	1686.25063	0.49128	44181.00000	908.00000	22167.00000
0.00000	0.00000	0.00000	0.00000	0.00000	0.00000	1692.44100	0.49128	44181.00000	908.00000	22167.00000
