'File 地沟油_2_2016一月28_1115.xls
'Part ID 地沟油_2
'Scan Created 2016/1/28 11:15:49
'Instrument S1-00205
'Version 1.5.7
'Integration Time 10100 s
'Number of Scans 50
'Units Absorbance
'Thermistor 47.75
Wavelength	Absorbance	Normalized	100%	dark	Raw 1	Native Wvl	Native Norm	Native 100%	Native dark	Native 1
908.10000	1.49334	0.03211	3595.82598	881.87120	969.12474	906.26400	0.03281	3684.00000	880.00000	972.00000
914.29435	1.51365	0.03064	3338.07467	866.26472	941.96571	912.45437	0.03085	3404.00000	876.00000	954.00000
920.48871	1.50616	0.03118	3265.72768	878.51909	952.96784	918.64474	0.03087	3257.00000	860.00000	934.00000
926.68306	1.50127	0.03153	3334.01990	918.74175	994.87448	924.83511	0.03167	3324.00000	924.00000	1000.00000
932.87742	1.50676	0.03113	3389.36197	864.93184	943.56062	931.02548	0.03105	3355.00000	875.00000	952.00000
939.07177	1.50262	0.03143	3619.59224	884.95115	970.88370	937.21585	0.03153	3537.00000	873.00000	957.00000
945.26613	1.51834	0.03032	3856.44440	889.93616	979.85555	943.40622	0.03067	3802.00000	900.00000	989.00000
951.46048	1.51860	0.03030	4005.12223	859.91735	955.25882	949.59659	0.03004	3955.00000	859.00000	952.00000
957.65484	1.52020	0.03019	4215.51392	893.73656	993.92783	955.78696	0.03065	4148.00000	885.00000	985.00000
963.84919	1.53635	0.02908	4374.23623	878.43417	980.16378	961.97733	0.02896	4344.00000	891.00000	991.00000
970.04355	1.51791	0.03035	4523.41127	896.06510	1006.10711	968.16770	0.03015	4453.00000	871.00000	979.00000
976.23790	1.52254	0.03002	4726.50938	925.04592	1039.19309	974.35807	0.03015	4693.00000	945.00000	1058.00000
982.43226	1.52661	0.02974	4835.26800	856.06452	974.41162	980.54844	0.02982	4778.00000	854.00000	971.00000
988.62661	1.52722	0.02970	5079.18703	905.14928	1029.13810	986.73881	0.02967	5013.00000	901.00000	1023.00000
994.82097	1.52729	0.02970	5288.13901	870.37131	1001.55024	992.92918	0.02976	5216.00000	881.00000	1010.00000
1001.01532	1.52898	0.02958	5547.24444	876.96250	1015.12201	999.11955	0.02955	5470.00000	867.00000	1003.00000
1007.20968	1.52500	0.02985	5821.73207	889.84005	1037.08787	1005.30992	0.02980	5729.00000	896.00000	1040.00000
1013.40403	1.53242	0.02935	6108.36987	875.33513	1028.88255	1011.50029	0.02965	6031.00000	870.00000	1023.00000
1019.59839	1.53571	0.02913	6349.51155	919.49996	1077.72074	1017.69066	0.02891	6269.00000	908.00000	1063.00000
1025.79274	1.52832	0.02963	6610.09178	908.88037	1077.71779	1023.88103	0.02974	6536.00000	921.00000	1088.00000
1031.98710	1.53770	0.02899	6863.27600	885.10537	1058.47956	1030.07140	0.02902	6776.00000	883.00000	1054.00000
1038.18145	1.53119	0.02943	7137.95533	879.30949	1063.49294	1036.26177	0.02934	7062.00000	892.00000	1073.00000
1044.37581	1.53313	0.02930	7415.45215	852.78191	1045.06016	1042.45214	0.02939	7313.00000	848.00000	1038.00000
1050.57016	1.53323	0.02929	7763.75520	889.74850	1091.13190	1048.64251	0.02920	7664.00000	884.00000	1082.00000
1056.76452	1.53000	0.02951	8043.98752	873.54577	1085.14478	1054.83288	0.02953	7958.00000	881.00000	1090.00000
1062.95887	1.53482	0.02919	8346.47029	875.55305	1093.60431	1061.02325	0.02928	8246.00000	868.00000	1084.00000
1069.15323	1.53304	0.02931	8651.05608	883.28349	1110.93836	1067.21362	0.02919	8564.00000	890.00000	1114.00000
1075.34758	1.52844	0.02962	8931.01237	859.29405	1098.35600	1073.40399	0.02959	8836.00000	860.00000	1096.00000
1081.54194	1.53225	0.02936	9243.78719	871.40916	1117.21930	1079.59436	0.02947	9149.00000	870.00000	1114.00000
1087.73629	1.53626	0.02909	9580.78777	901.76500	1154.23787	1085.78473	0.02914	9462.00000	883.00000	1133.00000
1093.93065	1.53623	0.02909	9940.76391	922.65990	1185.01133	1091.97510	0.02907	9841.00000	933.00000	1192.00000
1100.12500	1.53531	0.02915	10254.38783	869.25749	1142.87049	1098.16547	0.02914	10144.00000	878.00000	1148.00000
1106.31935	1.53630	0.02909	10641.04469	875.00467	1159.06059	1104.35584	0.02913	10519.00000	873.00000	1154.00000
1112.51371	1.53642	0.02908	11015.80766	872.41348	1167.38668	1110.54621	0.02903	10897.00000	874.00000	1165.00000
1118.70806	1.53419	0.02923	11401.60672	872.77123	1180.50263	1116.73658	0.02922	11276.00000	871.00000	1175.00000
1124.90242	1.53549	0.02914	11814.30888	885.70510	1204.19123	1122.92695	0.02917	11680.00000	881.00000	1196.00000
1131.09677	1.53727	0.02902	12236.17715	886.26842	1215.65401	1129.11732	0.02907	12103.00000	890.00000	1216.00000
1137.29113	1.53719	0.02903	12606.57558	854.95675	1196.09947	1135.30769	0.02897	12498.00000	867.00000	1204.00000
1143.48548	1.53582	0.02912	12995.31207	851.62722	1205.22452	1141.49806	0.02915	12851.00000	843.00000	1193.00000
1149.67984	1.53781	0.02899	13491.13514	894.93569	1260.06656	1147.68843	0.02899	13335.00000	884.00000	1245.00000
1155.87419	1.53656	0.02907	13953.07917	885.15852	1265.03244	1153.87880	0.02905	13805.00000	896.00000	1271.00000
1162.06855	1.53685	0.02905	14446.12872	862.12568	1256.75398	1160.06917	0.02907	14279.00000	862.00000	1252.00000
1168.26290	1.53963	0.02887	14959.02414	891.75197	1297.79787	1166.25954	0.02895	14800.00000	881.00000	1284.00000
1174.45726	1.54339	0.02862	15420.71473	898.79570	1314.35620	1172.44991	0.02867	15273.00000	903.00000	1315.00000
1180.65161	1.54269	0.02866	15876.41905	861.08105	1291.46210	1178.64028	0.02861	15728.00000	875.00000	1300.00000
1186.84597	1.54038	0.02881	16371.22020	852.06070	1299.24689	1184.83065	0.02879	16201.00000	846.00000	1288.00000
1193.04032	1.54252	0.02867	16894.18264	880.38932	1339.54668	1191.02102	0.02876	16730.00000	875.00000	1331.00000
1199.23468	1.54518	0.02850	17400.55626	883.09277	1353.83423	1197.21139	0.02851	17229.00000	882.00000	1348.00000
1205.42903	1.54408	0.02857	17922.85290	876.52702	1363.54469	1203.40176	0.02856	17758.00000	882.00000	1364.00000
1211.62339	1.54513	0.02850	18412.23826	867.41129	1367.46238	1209.59213	0.02853	18250.00000	866.00000	1362.00000
1217.81774	1.54584	0.02845	18946.64823	877.09601	1391.27210	1215.78250	0.02846	18763.00000	876.00000	1385.00000
1224.01210	1.54655	0.02841	19522.38589	879.59709	1409.20523	1221.97287	0.02844	19334.00000	877.00000	1402.00000
1230.20645	1.54848	0.02828	20046.82356	877.27220	1419.45131	1228.16324	0.02831	19884.00000	882.00000	1420.00000
1236.40081	1.54947	0.02822	20578.92550	894.33634	1449.79286	1234.35361	0.02824	20387.00000	878.00000	1429.00000
1242.59516	1.54967	0.02821	21116.97255	904.50586	1474.61768	1240.54398	0.02819	20962.00000	919.00000	1484.00000
1248.78952	1.54953	0.02821	21555.61107	852.78714	1436.89335	1246.73435	0.02824	21399.00000	858.00000	1438.00000
1254.98387	1.55099	0.02812	22112.97196	897.03001	1493.61174	1252.92472	0.02814	21917.00000	878.00000	1470.00000
1261.17823	1.55077	0.02813	22669.33634	902.45329	1514.85191	1259.11509	0.02812	22498.00000	915.00000	1522.00000
1267.37258	1.55201	0.02805	23144.86310	840.51764	1466.22306	1265.30546	0.02811	22985.00000	857.00000	1479.00000
1273.56694	1.55274	0.02801	23720.39347	860.92978	1501.16629	1271.49583	0.02797	23506.00000	841.00000	1475.00000
1279.76129	1.55097	0.02812	24372.77955	913.59084	1573.26065	1277.68620	0.02812	24166.00000	906.00000	1560.00000
1285.95565	1.55266	0.02801	24945.52650	893.87771	1567.62043	1283.87657	0.02805	24754.00000	903.00000	1572.00000
1292.15000	1.55476	0.02788	25532.41484	877.59600	1564.87250	1290.06694	0.02793	25332.00000	880.00000	1563.00000
1298.34435	1.55562	0.02782	26175.67024	884.75253	1588.40267	1296.25731	0.02780	25949.00000	881.00000	1578.00000
1304.53871	1.55533	0.02784	26805.92834	868.00311	1590.10131	1302.44769	0.02787	26610.00000	881.00000	1598.00000
1310.73306	1.55698	0.02773	27432.03993	867.23944	1604.01933	1308.63806	0.02775	27196.00000	853.00000	1584.00000
1316.92742	1.55668	0.02775	28161.82657	892.73544	1649.55049	1314.82843	0.02775	27925.00000	899.00000	1649.00000
1323.12177	1.55782	0.02768	28842.74169	862.95220	1637.44776	1321.01880	0.02772	28606.00000	864.00000	1633.00000
1329.31613	1.55890	0.02761	29519.54369	871.94640	1662.97593	1327.20917	0.02762	29300.00000	874.00000	1659.00000
1335.51048	1.55937	0.02758	30183.25265	863.66515	1672.34557	1333.39954	0.02761	29944.00000	862.00000	1665.00000
1341.70484	1.56017	0.02753	30926.51890	893.32929	1720.19502	1339.58991	0.02752	30673.00000	881.00000	1701.00000
1347.89919	1.55991	0.02755	31587.63481	894.88004	1740.39029	1345.78028	0.02756	31380.00000	904.00000	1744.00000
1354.09355	1.56171	0.02743	32227.78710	859.30420	1719.85900	1351.97065	0.02747	31988.00000	867.00000	1722.00000
1360.28790	1.56260	0.02738	32929.95072	867.11433	1744.93296	1358.16102	0.02738	32704.00000	861.00000	1733.00000
1366.48226	1.56261	0.02738	33569.06337	866.55753	1761.85567	1364.35139	0.02738	33341.00000	873.00000	1762.00000
1372.67661	1.56270	0.02737	34261.83351	843.87902	1758.59313	1370.54176	0.02737	34024.00000	848.00000	1756.00000
1378.87097	1.56350	0.02732	34838.67465	870.52277	1798.56448	1376.73213	0.02736	34668.00000	855.00000	1780.00000
1385.06532	1.56384	0.02730	35121.03064	877.10458	1811.96643	1382.92250	0.02727	35059.00000	888.00000	1820.00000
1391.25968	1.56313	0.02734	35289.43299	872.38486	1813.49692	1389.11287	0.02736	35214.00000	858.00000	1798.00000
1397.45403	1.56506	0.02722	35460.60298	899.47130	1840.32723	1395.30324	0.02726	35427.00000	906.00000	1847.00000
1403.64839	1.56548	0.02720	35666.10671	869.36576	1815.74521	1401.49361	0.02720	35545.00000	870.00000	1813.00000
1409.84274	1.56625	0.02715	36323.03255	883.09719	1845.22879	1407.68398	0.02718	36050.00000	883.00000	1839.00000
1416.03710	1.56760	0.02706	37284.68636	884.03189	1869.21419	1413.87435	0.02708	36926.00000	879.00000	1855.00000
1422.23145	1.56829	0.02702	38329.42739	892.53935	1904.12308	1420.06472	0.02705	37970.00000	895.00000	1898.00000
1428.42581	1.56961	0.02694	39434.74114	878.71439	1917.41066	1426.25509	0.02695	39022.00000	881.00000	1909.00000
1434.62016	1.57008	0.02691	40575.07439	880.06733	1948.26261	1432.44546	0.02693	40203.00000	880.00000	1939.00000
1440.81452	1.57074	0.02687	41493.68414	879.47622	1970.75779	1438.63583	0.02687	41184.00000	879.00000	1962.00000
1447.00887	1.56981	0.02693	42510.04768	905.41306	2025.71942	1444.82620	0.02690	42113.00000	891.00000	2000.00000
1453.20323	1.57092	0.02686	43543.72896	892.86717	2038.38050	1451.01657	0.02692	43229.00000	914.00000	2053.00000
1459.39758	1.57178	0.02681	44405.02794	864.61268	2031.77287	1457.20694	0.02677	44070.00000	855.00000	2012.00000
1465.59194	1.57014	0.02691	45481.34063	906.97918	2106.28736	1463.39731	0.02691	45094.00000	903.00000	2092.00000
1471.78629	1.57139	0.02683	46480.51435	890.87025	2114.02958	1469.58768	0.02685	46150.00000	894.00000	2109.00000
1477.98065	1.57136	0.02683	47320.91755	868.50781	2114.85877	1475.77805	0.02683	47029.00000	883.00000	2121.00000
1484.17500	1.57050	0.02688	48225.65661	857.63729	2131.11991	1481.96842	0.02685	47881.00000	849.00000	2112.00000
1490.36935	1.56979	0.02693	49092.30051	893.89890	2191.79852	1488.15879	0.02693	48824.00000	887.00000	2178.00000
1496.56371	1.57047	0.02689	49778.04514	887.35808	2201.86226	1494.34916	0.02690	49521.00000	891.00000	2199.00000
1502.75806	1.57061	0.02688	50469.48096	863.36996	2196.67449	1500.53953	0.02688	50241.00000	875.00000	2202.00000
1508.95242	1.57078	0.02687	51158.04064	897.54966	2247.89963	1506.72990	0.02687	50884.00000	867.00000	2211.00000
1515.14677	1.57118	0.02684	51878.91086	902.58342	2270.91787	1512.92027	0.02685	51650.00000	933.00000	2295.00000
1521.34113	1.57156	0.02682	52577.57434	850.45197	2237.70346	1519.11064	0.02682	52288.00000	838.00000	2218.00000
1527.53548	1.57136	0.02683	53324.26188	911.75147	2318.03160	1525.30101	0.02682	53098.00000	907.00000	2307.00000
1533.72984	1.57113	0.02685	53919.19306	885.74627	2309.45525	1531.49138	0.02684	53680.00000	890.00000	2307.00000
1539.92419	1.57176	0.02681	54593.00479	874.24673	2314.25253	1537.68175	0.02683	54367.00000	884.00000	2319.00000
1546.11855	1.57199	0.02679	55208.54831	866.87961	2322.82496	1543.87212	0.02678	54973.00000	860.00000	2309.00000
1552.31290	1.57092	0.02686	55811.51925	888.84465	2363.96659	1550.06249	0.02684	55614.00000	887.00000	2356.00000
1558.50726	1.57102	0.02685	56431.29012	888.46797	2379.90114	1556.25286	0.02686	56172.00000	885.00000	2370.00000
1564.70161	1.57197	0.02679	57011.94896	890.80855	2394.47383	1562.44323	0.02682	56858.00000	895.00000	2396.00000
1570.89597	1.57243	0.02677	57413.89650	869.93991	2383.34710	1568.63360	0.02676	57231.00000	876.00000	2384.00000
1577.09032	1.57184	0.02680	57979.03512	879.44141	2409.78936	1574.82397	0.02679	57786.00000	871.00000	2396.00000
1583.28468	1.57182	0.02680	58450.11400	894.72676	2437.36413	1581.01434	0.02680	58279.00000	894.00000	2432.00000
1589.47903	1.57245	0.02676	58825.25008	895.18773	2445.63608	1587.20471	0.02679	58712.00000	892.00000	2441.00000
1595.67339	1.57307	0.02673	59146.72764	885.70009	2442.76164	1593.39508	0.02672	59009.00000	896.00000	2449.00000
1601.86774	1.57258	0.02676	59574.82387	893.37146	2463.46068	1599.58545	0.02675	59419.00000	877.00000	2443.00000
1608.06210	1.57300	0.02673	59920.72690	909.46488	2486.84426	1605.77582	0.02675	59809.00000	920.00000	2495.00000
1614.25645	1.57315	0.02672	60220.95853	887.30010	2472.75379	1611.96619	0.02671	60102.00000	882.00000	2464.00000
1620.45081	1.57330	0.02671	60438.83040	897.12192	2487.57773	1618.15656	0.02673	60391.00000	905.00000	2495.00000
1626.64516	1.57357	0.02669	60579.30309	884.35356	2477.91105	1624.34693	0.02668	60502.00000	878.00000	2469.00000
1632.83952	1.57351	0.02670	60848.95373	899.57786	2500.14705	1630.53730	0.02672	60754.00000	903.00000	2502.00000
1639.03387	1.57417	0.02666	60928.35809	870.27700	2471.31044	1636.72767	0.02666	60938.00000	879.00000	2480.00000
1645.22823	1.57328	0.02671	60778.06969	873.98452	2474.21397	1642.91804	0.02669	60849.00000	868.00000	2469.00000
1651.42258	1.57270	0.02675	59777.88214	914.49031	2488.98413	1649.10841	0.02674	60357.00000	896.00000	2486.00000
1657.61694	1.57403	0.02667	57642.70006	920.63108	2433.25159	1655.29878	0.02672	58452.00000	931.00000	2468.00000
1663.81129	1.57549	0.02658	56689.89176	898.36344	2381.13966	1661.48915	0.02658	56762.00000	897.00000	2382.00000
1670.00565	1.57448	0.02664	55553.85124	917.06266	2372.52232	1667.67952	0.02662	56404.00000	914.00000	2391.00000
1676.20000	1.57418	0.02666	52318.47966	879.24303	2250.54672	1673.86989	0.02666	53497.00000	901.00000	2303.00000
0.00000	0.00000	0.00000	0.00000	0.00000	0.00000	1680.06026	0.02669	50136.00000	860.00000	2175.00000
0.00000	0.00000	0.00000	0.00000	0.00000	0.00000	1686.25063	0.02683	46019.00000	923.00000	2133.00000
0.00000	0.00000	0.00000	0.00000	0.00000	0.00000	1692.44100	0.02683	46019.00000	923.00000	2133.00000
