'File 地沟油_4_2016一月28_1115.xls
'Part ID 地沟油_4
'Scan Created 2016/1/28 11:15:57
'Instrument S1-00205
'Version 1.5.7
'Integration Time 10100 s
'Number of Scans 50
'Units Absorbance
'Thermistor 47.75
Wavelength	Absorbance	Normalized	100%	dark	Raw 1	Native Wvl	Native Norm	Native 100%	Native dark	Native 1
908.10000	1.60808	0.02466	3595.82598	881.87120	948.96981	906.26400	0.02568	3684.00000	880.00000	952.00000
914.29435	1.62650	0.02363	3338.07467	866.26472	924.58351	912.45437	0.02334	3404.00000	876.00000	935.00000
920.48871	1.59839	0.02521	3265.72768	878.51909	938.74540	918.64474	0.02503	3257.00000	860.00000	920.00000
926.68306	1.61721	0.02414	3334.01990	918.74175	977.03673	924.83511	0.02458	3324.00000	924.00000	983.00000
932.87742	1.63165	0.02335	3389.36197	864.93184	923.89706	931.02548	0.02339	3355.00000	875.00000	933.00000
939.07177	1.62480	0.02372	3619.59224	884.95115	949.84083	937.21585	0.02365	3537.00000	873.00000	936.00000
945.26613	1.63699	0.02307	3856.44440	889.93616	958.32335	943.40622	0.02343	3802.00000	900.00000	968.00000
951.46048	1.63911	0.02296	4005.12223	859.91735	932.19465	949.59659	0.02261	3955.00000	859.00000	929.00000
957.65484	1.63669	0.02308	4215.51392	893.73656	970.31731	955.78696	0.02360	4148.00000	885.00000	962.00000
963.84919	1.66995	0.02138	4374.23623	878.43417	953.24293	961.97733	0.02143	4344.00000	891.00000	965.00000
970.04355	1.64515	0.02264	4523.41127	896.06510	978.16933	968.16770	0.02233	4453.00000	871.00000	951.00000
976.23790	1.64820	0.02248	4726.50938	925.04592	1010.48646	974.35807	0.02268	4693.00000	945.00000	1030.00000
982.43226	1.65101	0.02233	4835.26800	856.06452	944.97010	980.54844	0.02217	4778.00000	854.00000	941.00000
988.62661	1.64140	0.02283	5079.18703	905.14928	1000.43973	986.73881	0.02286	5013.00000	901.00000	995.00000
994.82097	1.65340	0.02221	5288.13901	870.37131	968.50494	992.92918	0.02238	5216.00000	881.00000	978.00000
1001.01532	1.65206	0.02228	5547.24444	876.96250	981.03479	999.11955	0.02216	5470.00000	867.00000	969.00000
1007.20968	1.64729	0.02253	5821.73207	889.84005	1000.92004	1005.30992	0.02255	5729.00000	896.00000	1005.00000
1013.40403	1.65336	0.02221	6108.36987	875.33513	991.59807	1011.50029	0.02228	6031.00000	870.00000	985.00000
1019.59839	1.65329	0.02222	6349.51155	919.49996	1040.14261	1017.69066	0.02220	6269.00000	908.00000	1027.00000
1025.79274	1.65242	0.02226	6610.09178	908.88037	1035.80491	1023.88103	0.02226	6536.00000	921.00000	1046.00000
1031.98710	1.65344	0.02221	6863.27600	885.10537	1017.88205	1030.07140	0.02223	6776.00000	883.00000	1014.00000
1038.18145	1.65305	0.02223	7137.95533	879.30949	1018.44922	1036.26177	0.02220	7062.00000	892.00000	1029.00000
1044.37581	1.65275	0.02225	7415.45215	852.78191	998.76961	1042.45214	0.02227	7313.00000	848.00000	992.00000
1050.57016	1.65603	0.02208	7763.75520	889.74850	1041.51672	1048.64251	0.02212	7664.00000	884.00000	1034.00000
1056.76452	1.65641	0.02206	8043.98752	873.54577	1031.72625	1054.83288	0.02204	7958.00000	881.00000	1037.00000
1062.95887	1.65600	0.02208	8346.47029	875.55305	1040.49439	1061.02325	0.02209	8246.00000	868.00000	1031.00000
1069.15323	1.65162	0.02230	8651.05608	883.28349	1056.56453	1067.21362	0.02215	8564.00000	890.00000	1060.00000
1075.34758	1.64795	0.02249	8931.01237	859.29405	1040.81315	1073.40399	0.02257	8836.00000	860.00000	1040.00000
1081.54194	1.65249	0.02226	9243.78719	871.40916	1057.80312	1079.59436	0.02222	9149.00000	870.00000	1054.00000
1087.73629	1.64749	0.02252	9580.78777	901.76500	1097.17761	1085.78473	0.02250	9462.00000	883.00000	1076.00000
1093.93065	1.65340	0.02221	9940.76391	922.65990	1122.96715	1091.97510	0.02234	9841.00000	933.00000	1132.00000
1100.12500	1.65726	0.02202	10254.38783	869.25749	1075.90042	1098.16547	0.02202	10144.00000	878.00000	1082.00000
1106.31935	1.65630	0.02206	10641.04469	875.00467	1090.46642	1104.35584	0.02208	10519.00000	873.00000	1086.00000
1112.51371	1.65500	0.02213	11015.80766	872.41348	1096.92767	1110.54621	0.02205	10897.00000	874.00000	1095.00000
1118.70806	1.65257	0.02225	11401.60672	872.77123	1107.05278	1116.73658	0.02230	11276.00000	871.00000	1103.00000
1124.90242	1.65369	0.02220	11814.30888	885.70510	1128.33652	1122.92695	0.02213	11680.00000	881.00000	1120.00000
1131.09677	1.65087	0.02234	12236.17715	886.26842	1139.82123	1129.11732	0.02238	12103.00000	890.00000	1141.00000
1137.29113	1.65715	0.02202	12606.57558	854.95675	1113.76558	1135.30769	0.02210	12498.00000	867.00000	1124.00000
1143.48548	1.65763	0.02200	12995.31207	851.62722	1118.74416	1141.49806	0.02199	12851.00000	843.00000	1107.00000
1149.67984	1.65429	0.02217	13491.13514	894.93569	1174.17110	1147.68843	0.02209	13335.00000	884.00000	1159.00000
1155.87419	1.65140	0.02232	13953.07917	885.15852	1176.74986	1153.87880	0.02231	13805.00000	896.00000	1184.00000
1162.06855	1.65150	0.02231	14446.12872	862.12568	1165.21003	1160.06917	0.02229	14279.00000	862.00000	1161.00000
1168.26290	1.65199	0.02229	14959.02414	891.75197	1205.21705	1166.25954	0.02234	14800.00000	881.00000	1192.00000
1174.45726	1.65524	0.02212	15420.71473	898.79570	1220.03050	1172.44991	0.02213	15273.00000	903.00000	1221.00000
1180.65161	1.65505	0.02213	15876.41905	861.08105	1193.31473	1178.64028	0.02215	15728.00000	875.00000	1204.00000
1186.84597	1.65254	0.02226	16371.22020	852.06070	1197.51123	1184.83065	0.02214	16201.00000	846.00000	1186.00000
1193.04032	1.65006	0.02238	16894.18264	880.38932	1238.79283	1191.02102	0.02245	16730.00000	875.00000	1231.00000
1199.23468	1.65464	0.02215	17400.55626	883.09277	1248.98762	1197.21139	0.02214	17229.00000	882.00000	1244.00000
1205.42903	1.65207	0.02228	17922.85290	876.52702	1256.30285	1203.40176	0.02228	17758.00000	882.00000	1258.00000
1211.62339	1.65365	0.02220	18412.23826	867.41129	1256.91423	1209.59213	0.02220	18250.00000	866.00000	1252.00000
1217.81774	1.65220	0.02227	18946.64823	877.09601	1279.57801	1215.78250	0.02225	18763.00000	876.00000	1274.00000
1224.01210	1.65303	0.02223	19522.38589	879.59709	1294.04103	1221.97287	0.02227	19334.00000	877.00000	1288.00000
1230.20645	1.65219	0.02227	20046.82356	877.27220	1304.29757	1228.16324	0.02221	19884.00000	882.00000	1304.00000
1236.40081	1.65054	0.02236	20578.92550	894.33634	1334.44602	1234.35361	0.02240	20387.00000	878.00000	1315.00000
1242.59516	1.65392	0.02219	21116.97255	904.50586	1352.95876	1240.54398	0.02220	20962.00000	919.00000	1364.00000
1248.78952	1.65220	0.02227	21555.61107	852.78714	1313.92164	1246.73435	0.02225	21399.00000	858.00000	1315.00000
1254.98387	1.65188	0.02229	22112.97196	897.03001	1369.94274	1252.92472	0.02229	21917.00000	878.00000	1347.00000
1261.17823	1.65191	0.02229	22669.33634	902.45329	1387.61795	1259.11509	0.02229	22498.00000	915.00000	1396.00000
1267.37258	1.65256	0.02226	23144.86310	840.51764	1336.90427	1265.30546	0.02228	22985.00000	857.00000	1350.00000
1273.56694	1.65218	0.02228	23720.39347	860.92978	1370.15102	1271.49583	0.02224	23506.00000	841.00000	1345.00000
1279.76129	1.65086	0.02234	24372.77955	913.59084	1437.72449	1277.68620	0.02236	24166.00000	906.00000	1426.00000
1285.95565	1.65282	0.02224	24945.52650	893.87771	1428.84959	1283.87657	0.02226	24754.00000	903.00000	1434.00000
1292.15000	1.65245	0.02226	25532.41484	877.59600	1426.43556	1290.06694	0.02225	25332.00000	880.00000	1424.00000
1298.34435	1.65124	0.02232	26175.67024	884.75253	1449.33228	1296.25731	0.02230	25949.00000	881.00000	1440.00000
1304.53871	1.65100	0.02234	26805.92834	868.00311	1447.34656	1302.44769	0.02235	26610.00000	881.00000	1456.00000
1310.73306	1.65251	0.02226	27432.03993	867.23944	1458.51986	1308.63806	0.02228	27196.00000	853.00000	1440.00000
1316.92742	1.65273	0.02225	28161.82657	892.73544	1499.39718	1314.82843	0.02224	27925.00000	899.00000	1500.00000
1323.12177	1.65201	0.02228	28842.74169	862.95220	1486.43914	1321.01880	0.02228	28606.00000	864.00000	1482.00000
1329.31613	1.65111	0.02233	29519.54369	871.94640	1511.66177	1327.20917	0.02230	29300.00000	874.00000	1508.00000
1335.51048	1.65143	0.02231	30183.25265	863.66515	1517.87053	1333.39954	0.02235	29944.00000	862.00000	1512.00000
1341.70484	1.65191	0.02229	30926.51890	893.32929	1562.77239	1339.58991	0.02225	30673.00000	881.00000	1544.00000
1347.89919	1.65047	0.02236	31587.63481	894.88004	1581.24264	1345.78028	0.02238	31380.00000	904.00000	1586.00000
1354.09355	1.65291	0.02224	32227.78710	859.30420	1556.88282	1351.97065	0.02227	31988.00000	867.00000	1560.00000
1360.28790	1.65272	0.02225	32929.95072	867.11433	1580.43906	1358.16102	0.02223	32704.00000	861.00000	1569.00000
1366.48226	1.65239	0.02226	33569.06337	866.55753	1594.64299	1364.35139	0.02227	33341.00000	873.00000	1596.00000
1372.67661	1.65140	0.02232	34261.83351	843.87902	1589.62453	1370.54176	0.02228	34024.00000	848.00000	1587.00000
1378.87097	1.65009	0.02238	34838.67465	870.52277	1630.80696	1376.73213	0.02239	34668.00000	855.00000	1612.00000
1385.06532	1.65005	0.02238	35121.03064	877.10458	1643.64221	1382.92250	0.02236	35059.00000	888.00000	1652.00000
1391.25968	1.64924	0.02243	35289.43299	872.38486	1644.23586	1389.11287	0.02244	35214.00000	858.00000	1629.00000
1397.45403	1.65064	0.02235	35460.60298	899.47130	1672.06005	1395.30324	0.02236	35427.00000	906.00000	1678.00000
1403.64839	1.64986	0.02239	35666.10671	869.36576	1648.63177	1401.49361	0.02238	35545.00000	870.00000	1646.00000
1409.84274	1.65104	0.02233	36323.03255	883.09719	1674.57541	1407.68398	0.02238	36050.00000	883.00000	1670.00000
1416.03710	1.65149	0.02231	37284.68636	884.03189	1696.19011	1413.87435	0.02228	36926.00000	879.00000	1682.00000
1422.23145	1.65044	0.02236	38329.42739	892.53935	1729.76102	1420.06472	0.02239	37970.00000	895.00000	1725.00000
1428.42581	1.65193	0.02229	39434.74114	878.71439	1738.09280	1426.25509	0.02229	39022.00000	881.00000	1731.00000
1434.62016	1.65126	0.02232	40575.07439	880.06733	1766.13297	1432.44546	0.02233	40203.00000	880.00000	1758.00000
1440.81452	1.65116	0.02233	41493.68414	879.47622	1786.31534	1438.63583	0.02230	41184.00000	879.00000	1778.00000
1447.00887	1.64969	0.02240	42510.04768	905.41306	1837.49084	1444.82620	0.02239	42113.00000	891.00000	1814.00000
1453.20323	1.65067	0.02235	43543.72896	892.86717	1846.22290	1451.01657	0.02238	43229.00000	914.00000	1861.00000
1459.39758	1.65062	0.02236	44405.02794	864.61268	1837.99100	1457.20694	0.02233	44070.00000	855.00000	1820.00000
1465.59194	1.64888	0.02244	45481.34063	906.97918	1907.43470	1463.39731	0.02243	45094.00000	903.00000	1894.00000
1471.78629	1.64877	0.02245	46480.51435	890.87025	1914.39783	1469.58768	0.02245	46150.00000	894.00000	1910.00000
1477.98065	1.64779	0.02250	47320.91755	868.50781	1913.75369	1475.77805	0.02247	47029.00000	883.00000	1920.00000
1484.17500	1.64633	0.02258	48225.65661	857.63729	1927.07631	1481.96842	0.02256	47881.00000	849.00000	1910.00000
1490.36935	1.64589	0.02260	49092.30051	893.89890	1983.18466	1488.15879	0.02259	48824.00000	887.00000	1970.00000
1496.56371	1.64523	0.02263	49778.04514	887.35808	1993.95994	1494.34916	0.02262	49521.00000	891.00000	1991.00000
1502.75806	1.64416	0.02269	50469.48096	863.36996	1988.94414	1500.53953	0.02267	50241.00000	875.00000	1994.00000
1508.95242	1.64298	0.02275	51158.04064	897.54966	2041.09200	1506.72990	0.02273	50884.00000	867.00000	2004.00000
1515.14677	1.64254	0.02278	51878.91086	902.58342	2063.56773	1512.92027	0.02277	51650.00000	933.00000	2088.00000
1521.34113	1.64219	0.02279	52577.57434	850.45197	2029.49058	1519.11064	0.02278	52288.00000	838.00000	2010.00000
1527.53548	1.64162	0.02282	53324.26188	911.75147	2107.97638	1525.30101	0.02282	53098.00000	907.00000	2098.00000
1533.72984	1.64129	0.02284	53919.19306	885.74627	2097.05829	1531.49138	0.02283	53680.00000	890.00000	2095.00000
1539.92419	1.63987	0.02292	54593.00479	874.24673	2105.25365	1537.68175	0.02289	54367.00000	884.00000	2108.00000
1546.11855	1.63913	0.02295	55208.54831	866.87961	2114.25774	1543.87212	0.02295	54973.00000	860.00000	2102.00000
1552.31290	1.63816	0.02301	55811.51925	888.84465	2152.40095	1550.06249	0.02297	55614.00000	887.00000	2144.00000
1558.50726	1.63649	0.02309	56431.29012	888.46797	2171.19675	1556.25286	0.02308	56172.00000	885.00000	2161.00000
1564.70161	1.63673	0.02308	57011.94896	890.80855	2186.18197	1562.44323	0.02309	56858.00000	895.00000	2187.00000
1570.89597	1.63645	0.02310	57413.89650	869.93991	2175.91393	1568.63360	0.02309	57231.00000	876.00000	2177.00000
1577.09032	1.63573	0.02314	57979.03512	879.44141	2200.45317	1574.82397	0.02312	57786.00000	871.00000	2187.00000
1583.28468	1.63577	0.02313	58450.11400	894.72676	2226.15019	1581.01434	0.02314	58279.00000	894.00000	2222.00000
1589.47903	1.63569	0.02314	58825.25008	895.18773	2235.52293	1587.20471	0.02312	58712.00000	892.00000	2229.00000
1595.67339	1.63532	0.02316	59146.72764	885.70009	2234.82479	1593.39508	0.02316	59009.00000	896.00000	2242.00000
1601.86774	1.63442	0.02320	59574.82387	893.37146	2255.07618	1599.58545	0.02316	59419.00000	877.00000	2233.00000
1608.06210	1.63374	0.02324	59920.72690	909.46488	2280.94132	1605.77582	0.02326	59809.00000	920.00000	2290.00000
1614.25645	1.63449	0.02320	60220.95853	887.30010	2263.92813	1611.96619	0.02318	60102.00000	882.00000	2255.00000
1620.45081	1.63386	0.02324	60438.83040	897.12192	2280.57393	1618.15656	0.02325	60391.00000	905.00000	2288.00000
1626.64516	1.63431	0.02321	60579.30309	884.35356	2269.93214	1624.34693	0.02320	60502.00000	878.00000	2261.00000
1632.83952	1.63262	0.02330	60848.95373	899.57786	2296.47710	1630.53730	0.02327	60754.00000	903.00000	2296.00000
1639.03387	1.63190	0.02334	60928.35809	870.27700	2272.03970	1636.72767	0.02333	60938.00000	879.00000	2280.00000
1645.22823	1.63147	0.02336	60778.06969	873.98452	2273.53136	1642.91804	0.02336	60849.00000	868.00000	2269.00000
1651.42258	1.63006	0.02344	59777.88214	914.49031	2294.15503	1649.10841	0.02339	60357.00000	896.00000	2287.00000
1657.61694	1.62891	0.02350	57642.70006	920.63108	2253.69653	1655.29878	0.02350	58452.00000	931.00000	2283.00000
1663.81129	1.62953	0.02347	56689.89176	898.36344	2207.68874	1661.48915	0.02347	56762.00000	897.00000	2208.00000
1670.00565	1.62762	0.02357	55553.85124	917.06266	2204.82095	1667.67952	0.02352	56404.00000	914.00000	2219.00000
1676.20000	1.62570	0.02368	52318.47966	879.24303	2097.24068	1673.86989	0.02365	53497.00000	901.00000	2145.00000
0.00000	0.00000	0.00000	0.00000	0.00000	0.00000	1680.06026	0.02374	50136.00000	860.00000	2030.00000
0.00000	0.00000	0.00000	0.00000	0.00000	0.00000	1686.25063	0.02402	46019.00000	923.00000	2006.00000
0.00000	0.00000	0.00000	0.00000	0.00000	0.00000	1692.44100	0.02402	46019.00000	923.00000	2006.00000
