'File 地沟油_5_2016一月28_1116.xls
'Part ID 地沟油_5
'Scan Created 2016/1/28 11:16:00
'Instrument S1-00205
'Version 1.5.7
'Integration Time 10100 s
'Number of Scans 50
'Units Absorbance
'Thermistor 47.75
Wavelength	Absorbance	Normalized	100%	dark	Raw 1	Native Wvl	Native Norm	Native 100%	Native dark	Native 1
908.10000	1.61379	0.02433	3595.82598	881.87120	948.08236	906.26400	0.02532	3684.00000	880.00000	951.00000
914.29435	1.63657	0.02309	3338.07467	866.26472	923.25426	912.45437	0.02294	3404.00000	876.00000	934.00000
920.48871	1.61210	0.02443	3265.72768	878.51909	936.87223	918.64474	0.02420	3257.00000	860.00000	918.00000
926.68306	1.62237	0.02386	3334.01990	918.74175	976.33956	924.83511	0.02417	3324.00000	924.00000	982.00000
932.87742	1.62850	0.02352	3389.36197	864.93184	924.35047	931.02548	0.02339	3355.00000	875.00000	933.00000
939.07177	1.62035	0.02397	3619.59224	884.95115	950.46415	937.21585	0.02402	3537.00000	873.00000	937.00000
945.26613	1.63321	0.02327	3856.44440	889.93616	958.97291	943.40622	0.02343	3802.00000	900.00000	968.00000
951.46048	1.63122	0.02338	4005.12223	859.91735	933.46865	949.59659	0.02326	3955.00000	859.00000	931.00000
957.65484	1.64096	0.02286	4215.51392	893.73656	969.60856	955.78696	0.02329	4148.00000	885.00000	961.00000
963.84919	1.65290	0.02224	4374.23623	878.43417	956.22691	961.97733	0.02201	4344.00000	891.00000	967.00000
970.04355	1.63577	0.02313	4523.41127	896.06510	979.93450	968.16770	0.02317	4453.00000	871.00000	954.00000
976.23790	1.65270	0.02225	4726.50938	925.04592	1009.64288	974.35807	0.02241	4693.00000	945.00000	1029.00000
982.43226	1.64492	0.02265	4835.26800	856.06452	946.19618	980.54844	0.02243	4778.00000	854.00000	942.00000
988.62661	1.63567	0.02314	5079.18703	905.14928	1001.73342	986.73881	0.02310	5013.00000	901.00000	996.00000
994.82097	1.64578	0.02261	5288.13901	870.37131	970.21195	992.92918	0.02284	5216.00000	881.00000	980.00000
1001.01532	1.64611	0.02259	5547.24444	876.96250	982.49596	999.11955	0.02238	5470.00000	867.00000	970.00000
1007.20968	1.63548	0.02315	5821.73207	889.84005	1003.95936	1005.30992	0.02317	5729.00000	896.00000	1008.00000
1013.40403	1.64769	0.02251	6108.36987	875.33513	993.13711	1011.50029	0.02267	6031.00000	870.00000	987.00000
1019.59839	1.64976	0.02240	6349.51155	919.49996	1041.13153	1017.69066	0.02238	6269.00000	908.00000	1028.00000
1025.79274	1.64952	0.02241	6610.09178	908.88037	1036.64180	1023.88103	0.02244	6536.00000	921.00000	1047.00000
1031.98710	1.64792	0.02249	6863.27600	885.10537	1019.60621	1030.07140	0.02240	6776.00000	883.00000	1015.00000
1038.18145	1.64516	0.02264	7137.95533	879.30949	1020.96805	1036.26177	0.02269	7062.00000	892.00000	1032.00000
1044.37581	1.64903	0.02244	7415.45215	852.78191	1000.05419	1042.45214	0.02243	7313.00000	848.00000	993.00000
1050.57016	1.64657	0.02256	7763.75520	889.74850	1044.84015	1048.64251	0.02257	7664.00000	884.00000	1037.00000
1056.76452	1.64899	0.02244	8043.98752	873.54577	1034.46289	1054.83288	0.02247	7958.00000	881.00000	1040.00000
1062.95887	1.65197	0.02229	8346.47029	875.55305	1042.02534	1061.02325	0.02236	8246.00000	868.00000	1033.00000
1069.15323	1.64825	0.02248	8651.05608	883.28349	1057.92137	1067.21362	0.02228	8564.00000	890.00000	1061.00000
1075.34758	1.63910	0.02296	8931.01237	859.29405	1044.55760	1073.40399	0.02294	8836.00000	860.00000	1043.00000
1081.54194	1.64529	0.02263	9243.78719	871.40916	1060.90223	1079.59436	0.02271	9149.00000	870.00000	1058.00000
1087.73629	1.64516	0.02264	9580.78777	901.76500	1098.24115	1085.78473	0.02261	9462.00000	883.00000	1077.00000
1093.93065	1.64475	0.02266	9940.76391	922.65990	1127.00646	1091.97510	0.02268	9841.00000	933.00000	1135.00000
1100.12500	1.64798	0.02249	10254.38783	869.25749	1080.34186	1098.16547	0.02256	10144.00000	878.00000	1087.00000
1106.31935	1.64992	0.02239	10641.04469	875.00467	1093.68001	1104.35584	0.02239	10519.00000	873.00000	1089.00000
1112.51371	1.64829	0.02248	11015.80766	872.41348	1100.39431	1110.54621	0.02245	10897.00000	874.00000	1099.00000
1118.70806	1.64840	0.02247	11401.60672	872.77123	1109.33503	1116.73658	0.02249	11276.00000	871.00000	1105.00000
1124.90242	1.64582	0.02260	11814.30888	885.70510	1132.76624	1122.92695	0.02250	11680.00000	881.00000	1124.00000
1131.09677	1.64518	0.02264	12236.17715	886.26842	1143.15374	1129.11732	0.02274	12103.00000	890.00000	1145.00000
1137.29113	1.65024	0.02238	12606.57558	854.95675	1117.93856	1135.30769	0.02235	12498.00000	867.00000	1127.00000
1143.48548	1.64631	0.02258	12995.31207	851.62722	1125.78195	1141.49806	0.02257	12851.00000	843.00000	1114.00000
1149.67984	1.64821	0.02248	13491.13514	894.93569	1178.11164	1147.68843	0.02249	13335.00000	884.00000	1164.00000
1155.87419	1.64628	0.02258	13953.07917	885.15852	1180.22504	1153.87880	0.02254	13805.00000	896.00000	1187.00000
1162.06855	1.64408	0.02269	14446.12872	862.12568	1170.41654	1160.06917	0.02266	14279.00000	862.00000	1166.00000
1168.26290	1.64503	0.02264	14959.02414	891.75197	1210.29406	1166.25954	0.02270	14800.00000	881.00000	1197.00000
1174.45726	1.64923	0.02243	15420.71473	898.79570	1224.48078	1172.44991	0.02248	15273.00000	903.00000	1226.00000
1180.65161	1.64865	0.02246	15876.41905	861.08105	1198.28680	1178.64028	0.02242	15728.00000	875.00000	1208.00000
1186.84597	1.64717	0.02253	16371.22020	852.06070	1201.75126	1184.83065	0.02253	16201.00000	846.00000	1192.00000
1193.04032	1.64703	0.02254	16894.18264	880.38932	1241.36309	1191.02102	0.02252	16730.00000	875.00000	1232.00000
1199.23468	1.64452	0.02267	17400.55626	883.09277	1257.56426	1197.21139	0.02263	17229.00000	882.00000	1252.00000
1205.42903	1.64445	0.02268	17922.85290	876.52702	1263.05472	1203.40176	0.02269	17758.00000	882.00000	1265.00000
1211.62339	1.64624	0.02258	18412.23826	867.41129	1263.59867	1209.59213	0.02261	18250.00000	866.00000	1259.00000
1217.81774	1.64547	0.02262	18946.64823	877.09601	1285.88787	1215.78250	0.02259	18763.00000	876.00000	1280.00000
1224.01210	1.64621	0.02258	19522.38589	879.59709	1300.58756	1221.97287	0.02265	19334.00000	877.00000	1295.00000
1230.20645	1.64738	0.02252	20046.82356	877.27220	1309.05030	1228.16324	0.02247	19884.00000	882.00000	1309.00000
1236.40081	1.64327	0.02274	20578.92550	894.33634	1341.88327	1234.35361	0.02271	20387.00000	878.00000	1321.00000
1242.59516	1.64419	0.02269	21116.97255	904.50586	1363.11210	1240.54398	0.02270	20962.00000	919.00000	1374.00000
1248.78952	1.64430	0.02268	21555.61107	852.78714	1322.38431	1246.73435	0.02269	21399.00000	858.00000	1324.00000
1254.98387	1.64452	0.02267	22112.97196	897.03001	1378.02077	1252.92472	0.02267	21917.00000	878.00000	1355.00000
1261.17823	1.64319	0.02274	22669.33634	902.45329	1397.47281	1259.11509	0.02270	22498.00000	915.00000	1405.00000
1267.37258	1.64330	0.02274	23144.86310	840.51764	1347.59007	1265.30546	0.02278	22985.00000	857.00000	1361.00000
1273.56694	1.64319	0.02274	23720.39347	860.92978	1380.81202	1271.49583	0.02268	23506.00000	841.00000	1355.00000
1279.76129	1.63957	0.02293	24372.77955	913.59084	1451.52274	1277.68620	0.02291	24166.00000	906.00000	1439.00000
1285.95565	1.64203	0.02280	24945.52650	893.87771	1442.30300	1283.87657	0.02285	24754.00000	903.00000	1448.00000
1292.15000	1.64340	0.02273	25532.41484	877.59600	1437.98871	1290.06694	0.02274	25332.00000	880.00000	1436.00000
1298.34435	1.64137	0.02284	26175.67024	884.75253	1462.33002	1296.25731	0.02278	25949.00000	881.00000	1452.00000
1304.53871	1.64142	0.02283	26805.92834	868.00311	1460.23675	1302.44769	0.02289	26610.00000	881.00000	1470.00000
1310.73306	1.64365	0.02272	27432.03993	867.23944	1470.73902	1308.63806	0.02270	27196.00000	853.00000	1451.00000
1316.92742	1.64105	0.02285	28161.82657	892.73544	1515.90861	1314.82843	0.02283	27925.00000	899.00000	1516.00000
1323.12177	1.64080	0.02287	28842.74169	862.95220	1502.76712	1321.01880	0.02285	28606.00000	864.00000	1498.00000
1329.31613	1.64009	0.02290	29519.54369	871.94640	1528.08476	1327.20917	0.02290	29300.00000	874.00000	1525.00000
1335.51048	1.63991	0.02291	30183.25265	863.66515	1535.47384	1333.39954	0.02290	29944.00000	862.00000	1528.00000
1341.70484	1.63858	0.02298	30926.51890	893.32929	1583.60578	1339.58991	0.02296	30673.00000	881.00000	1565.00000
1347.89919	1.63854	0.02299	31587.63481	894.88004	1600.36526	1345.78028	0.02300	31380.00000	904.00000	1605.00000
1354.09355	1.63946	0.02294	32227.78710	859.30420	1578.80748	1351.97065	0.02294	31988.00000	867.00000	1581.00000
1360.28790	1.63878	0.02297	32929.95072	867.11433	1603.69202	1358.16102	0.02296	32704.00000	861.00000	1592.00000
1366.48226	1.63780	0.02302	33569.06337	866.55753	1619.52600	1364.35139	0.02301	33341.00000	873.00000	1620.00000
1372.67661	1.63681	0.02308	34261.83351	843.87902	1615.08711	1370.54176	0.02306	34024.00000	848.00000	1613.00000
1378.87097	1.63653	0.02309	34838.67465	870.52277	1654.93259	1376.73213	0.02310	34668.00000	855.00000	1636.00000
1385.06532	1.63616	0.02311	35121.03064	877.10458	1668.55117	1382.92250	0.02309	35059.00000	888.00000	1677.00000
1391.25968	1.63481	0.02318	35289.43299	872.38486	1670.32099	1389.11287	0.02317	35214.00000	858.00000	1654.00000
1397.45403	1.63536	0.02315	35460.60298	899.47130	1699.72140	1395.30324	0.02317	35427.00000	906.00000	1706.00000
1403.64839	1.63436	0.02321	35666.10671	869.36576	1676.95768	1401.49361	0.02316	35545.00000	870.00000	1673.00000
1409.84274	1.63331	0.02326	36323.03255	883.09719	1707.54886	1407.68398	0.02329	36050.00000	883.00000	1702.00000
1416.03710	1.63433	0.02321	37284.68636	884.03189	1728.91158	1413.87435	0.02319	36926.00000	879.00000	1715.00000
1422.23145	1.63316	0.02327	38329.42739	892.53935	1763.75545	1420.06472	0.02328	37970.00000	895.00000	1758.00000
1428.42581	1.63393	0.02323	39434.74114	878.71439	1774.43261	1426.25509	0.02323	39022.00000	881.00000	1767.00000
1434.62016	1.63290	0.02329	40575.07439	880.06733	1804.42240	1432.44546	0.02327	40203.00000	880.00000	1795.00000
1440.81452	1.63278	0.02329	41493.68414	879.47622	1825.46791	1438.63583	0.02330	41184.00000	879.00000	1818.00000
1447.00887	1.63152	0.02336	42510.04768	905.41306	1877.35767	1444.82620	0.02331	42113.00000	891.00000	1852.00000
1453.20323	1.63111	0.02338	43543.72896	892.86717	1890.11709	1451.01657	0.02342	43229.00000	914.00000	1905.00000
1459.39758	1.63214	0.02333	44405.02794	864.61268	1880.31734	1457.20694	0.02330	44070.00000	855.00000	1862.00000
1465.59194	1.63017	0.02343	45481.34063	906.97918	1951.47320	1463.39731	0.02342	45094.00000	903.00000	1938.00000
1471.78629	1.63004	0.02344	46480.51435	890.87025	1959.51429	1469.58768	0.02342	46150.00000	894.00000	1954.00000
1477.98065	1.62889	0.02350	47320.91755	868.50781	1960.22137	1475.77805	0.02349	47029.00000	883.00000	1967.00000
1484.17500	1.62819	0.02354	48225.65661	857.63729	1972.70752	1481.96842	0.02352	47881.00000	849.00000	1955.00000
1490.36935	1.62690	0.02361	49092.30051	893.89890	2031.85284	1488.15879	0.02359	48824.00000	887.00000	2018.00000
1496.56371	1.62630	0.02364	49778.04514	887.35808	2043.26581	1494.34916	0.02363	49521.00000	891.00000	2040.00000
1502.75806	1.62521	0.02370	50469.48096	863.36996	2039.15268	1500.53953	0.02368	50241.00000	875.00000	2044.00000
1508.95242	1.62453	0.02374	51158.04064	897.54966	2090.68654	1506.72990	0.02373	50884.00000	867.00000	2054.00000
1515.14677	1.62364	0.02379	51878.91086	902.58342	2115.21586	1512.92027	0.02376	51650.00000	933.00000	2138.00000
1521.34113	1.62213	0.02387	52577.57434	850.45197	2085.22151	1519.11064	0.02385	52288.00000	838.00000	2065.00000
1527.53548	1.62155	0.02390	53324.26188	911.75147	2164.56393	1525.30101	0.02389	53098.00000	907.00000	2154.00000
1533.72984	1.62084	0.02394	53919.19306	885.74627	2155.47534	1531.49138	0.02392	53680.00000	890.00000	2153.00000
1539.92419	1.62015	0.02398	54593.00479	874.24673	2162.42745	1537.68175	0.02397	54367.00000	884.00000	2166.00000
1546.11855	1.61915	0.02404	55208.54831	866.87961	2173.00137	1543.87212	0.02401	54973.00000	860.00000	2159.00000
1552.31290	1.61735	0.02414	55811.51925	888.84465	2214.40470	1550.06249	0.02410	55614.00000	887.00000	2206.00000
1558.50726	1.61609	0.02421	56431.29012	888.46797	2232.90033	1556.25286	0.02418	56172.00000	885.00000	2222.00000
1564.70161	1.61557	0.02423	57011.94896	890.80855	2250.85241	1562.44323	0.02423	56858.00000	895.00000	2251.00000
1570.89597	1.61527	0.02425	57413.89650	869.93991	2241.20359	1568.63360	0.02424	57231.00000	876.00000	2242.00000
1577.09032	1.61441	0.02430	57979.03512	879.44141	2266.91500	1574.82397	0.02428	57786.00000	871.00000	2253.00000
1583.28468	1.61285	0.02439	58450.11400	894.72676	2298.31418	1581.01434	0.02434	58279.00000	894.00000	2291.00000
1589.47903	1.61212	0.02443	58825.25008	895.18773	2310.27700	1587.20471	0.02444	58712.00000	892.00000	2305.00000
1595.67339	1.61223	0.02442	59146.72764	885.70009	2308.53701	1593.39508	0.02440	59009.00000	896.00000	2314.00000
1601.86774	1.61030	0.02453	59574.82387	893.37146	2332.84958	1599.58545	0.02450	59419.00000	877.00000	2311.00000
1608.06210	1.61001	0.02455	59920.72690	909.46488	2357.99736	1605.77582	0.02455	59809.00000	920.00000	2366.00000
1614.25645	1.60992	0.02455	60220.95853	887.30010	2344.04880	1611.96619	0.02454	60102.00000	882.00000	2335.00000
1620.45081	1.60970	0.02456	60438.83040	897.12192	2359.71481	1618.15656	0.02458	60391.00000	905.00000	2367.00000
1626.64516	1.60917	0.02459	60579.30309	884.35356	2352.49760	1624.34693	0.02455	60502.00000	878.00000	2342.00000
1632.83952	1.60749	0.02469	60848.95373	899.57786	2379.69539	1630.53730	0.02468	60754.00000	903.00000	2380.00000
1639.03387	1.60764	0.02468	60928.35809	870.27700	2352.57167	1636.72767	0.02468	60938.00000	879.00000	2361.00000
1645.22823	1.60690	0.02472	60778.06969	873.98452	2355.03288	1642.91804	0.02471	60849.00000	868.00000	2350.00000
1651.42258	1.60421	0.02488	59777.88214	914.49031	2378.74701	1649.10841	0.02479	60357.00000	896.00000	2370.00000
1657.61694	1.60054	0.02509	57642.70006	920.63108	2343.67607	1655.29878	0.02503	58452.00000	931.00000	2371.00000
1663.81129	1.60087	0.02507	56689.89176	898.36344	2297.00259	1661.48915	0.02510	56762.00000	897.00000	2299.00000
1670.00565	1.59957	0.02514	55553.85124	917.06266	2290.69509	1667.67952	0.02507	56404.00000	914.00000	2305.00000
1676.20000	1.59586	0.02536	52318.47966	879.24303	2183.88121	1673.86989	0.02531	53497.00000	901.00000	2232.00000
0.00000	0.00000	0.00000	0.00000	0.00000	0.00000	1680.06026	0.02543	50136.00000	860.00000	2113.00000
0.00000	0.00000	0.00000	0.00000	0.00000	0.00000	1686.25063	0.02563	46019.00000	923.00000	2079.00000
0.00000	0.00000	0.00000	0.00000	0.00000	0.00000	1692.44100	0.02563	46019.00000	923.00000	2079.00000
