'File 地沟油_3_2016一月28_1115.xls
'Part ID 地沟油_3
'Scan Created 2016/1/28 11:15:53
'Instrument S1-00205
'Version 1.5.7
'Integration Time 10100 s
'Number of Scans 50
'Units Absorbance
'Thermistor 47.75
Wavelength	Absorbance	Normalized	100%	dark	Raw 1	Native Wvl	Native Norm	Native 100%	Native dark	Native 1
908.10000	1.63744	0.02304	3595.82598	881.87120	944.61990	906.26400	0.02425	3684.00000	880.00000	948.00000
914.29435	1.66632	0.02156	3338.07467	866.26472	919.45609	912.45437	0.02136	3404.00000	876.00000	930.00000
920.48871	1.63423	0.02321	3265.72768	878.51909	933.97965	918.64474	0.02295	3257.00000	860.00000	915.00000
926.68306	1.64548	0.02262	3334.01990	918.74175	973.36136	924.83511	0.02292	3324.00000	924.00000	979.00000
932.87742	1.65230	0.02227	3389.36197	864.93184	921.15537	931.02548	0.02218	3355.00000	875.00000	930.00000
939.07177	1.63547	0.02315	3619.59224	884.95115	948.27824	937.21585	0.02290	3537.00000	873.00000	934.00000
945.26613	1.64521	0.02264	3856.44440	889.93616	957.03185	943.40622	0.02309	3802.00000	900.00000	967.00000
951.46048	1.66321	0.02172	4005.12223	859.91735	928.28802	949.59659	0.02164	3955.00000	859.00000	926.00000
957.65484	1.66361	0.02170	4215.51392	893.73656	965.73375	955.78696	0.02207	4148.00000	885.00000	957.00000
963.84919	1.68658	0.02058	4374.23623	878.43417	950.41338	961.97733	0.02056	4344.00000	891.00000	962.00000
970.04355	1.66003	0.02188	4523.41127	896.06510	975.41912	968.16770	0.02150	4453.00000	871.00000	948.00000
976.23790	1.65880	0.02194	4726.50938	925.04592	1008.41747	974.35807	0.02215	4693.00000	945.00000	1028.00000
982.43226	1.66832	0.02146	4835.26800	856.06452	941.49727	980.54844	0.02141	4778.00000	854.00000	938.00000
988.62661	1.65914	0.02192	5079.18703	905.14928	996.63160	986.73881	0.02189	5013.00000	901.00000	991.00000
994.82097	1.66605	0.02158	5288.13901	870.37131	965.68431	992.92918	0.02168	5216.00000	881.00000	975.00000
1001.01532	1.66595	0.02158	5547.24444	876.96250	977.76078	999.11955	0.02151	5470.00000	867.00000	966.00000
1007.20968	1.66413	0.02167	5821.73207	889.84005	996.69354	1005.30992	0.02173	5729.00000	896.00000	1001.00000
1013.40403	1.66635	0.02156	6108.36987	875.33513	988.17093	1011.50029	0.02151	6031.00000	870.00000	981.00000
1019.59839	1.65985	0.02189	6349.51155	919.49996	1038.34524	1017.69066	0.02182	6269.00000	908.00000	1025.00000
1025.79274	1.66724	0.02152	6610.09178	908.88037	1031.51633	1023.88103	0.02173	6536.00000	921.00000	1043.00000
1031.98710	1.67046	0.02136	6863.27600	885.10537	1012.82368	1030.07140	0.02121	6776.00000	883.00000	1008.00000
1038.18145	1.65886	0.02194	7137.95533	879.30949	1016.55732	1036.26177	0.02188	7062.00000	892.00000	1027.00000
1044.37581	1.66132	0.02181	7415.45215	852.78191	995.95076	1042.45214	0.02181	7313.00000	848.00000	989.00000
1050.57016	1.66288	0.02173	7763.75520	889.74850	1039.11267	1048.64251	0.02183	7664.00000	884.00000	1032.00000
1056.76452	1.66822	0.02147	8043.98752	873.54577	1027.50443	1054.83288	0.02148	7958.00000	881.00000	1033.00000
1062.95887	1.66677	0.02154	8346.47029	875.55305	1036.43804	1061.02325	0.02155	8246.00000	868.00000	1027.00000
1069.15323	1.66049	0.02185	8651.05608	883.28349	1053.07427	1067.21362	0.02163	8564.00000	890.00000	1056.00000
1075.34758	1.65188	0.02229	8931.01237	859.29405	1039.17715	1073.40399	0.02232	8836.00000	860.00000	1038.00000
1081.54194	1.65875	0.02194	9243.78719	871.40916	1055.12687	1079.59436	0.02198	9149.00000	870.00000	1052.00000
1087.73629	1.65645	0.02206	9580.78777	901.76500	1093.19280	1085.78473	0.02203	9462.00000	883.00000	1072.00000
1093.93065	1.65892	0.02193	9940.76391	922.65990	1120.43976	1091.97510	0.02200	9841.00000	933.00000	1129.00000
1100.12500	1.66156	0.02180	10254.38783	869.25749	1073.85802	1098.16547	0.02180	10144.00000	878.00000	1080.00000
1106.31935	1.65955	0.02190	10641.04469	875.00467	1088.87604	1104.35584	0.02187	10519.00000	873.00000	1084.00000
1112.51371	1.65782	0.02199	11015.80766	872.41348	1095.45617	1110.54621	0.02195	10897.00000	874.00000	1094.00000
1118.70806	1.65862	0.02195	11401.60672	872.77123	1103.82600	1116.73658	0.02201	11276.00000	871.00000	1100.00000
1124.90242	1.65905	0.02193	11814.30888	885.70510	1125.34956	1122.92695	0.02185	11680.00000	881.00000	1117.00000
1131.09677	1.65568	0.02210	12236.17715	886.26842	1137.02901	1129.11732	0.02212	12103.00000	890.00000	1138.00000
1137.29113	1.65986	0.02188	12606.57558	854.95675	1112.15558	1135.30769	0.02192	12498.00000	867.00000	1122.00000
1143.48548	1.65906	0.02192	12995.31207	851.62722	1117.86547	1141.49806	0.02190	12851.00000	843.00000	1106.00000
1149.67984	1.65620	0.02207	13491.13514	894.93569	1172.94853	1147.68843	0.02201	13335.00000	884.00000	1158.00000
1155.87419	1.65509	0.02213	13953.07917	885.15852	1174.27555	1153.87880	0.02216	13805.00000	896.00000	1182.00000
1162.06855	1.65546	0.02211	14446.12872	862.12568	1162.46412	1160.06917	0.02206	14279.00000	862.00000	1158.00000
1168.26290	1.65483	0.02214	14959.02414	891.75197	1203.16666	1166.25954	0.02220	14800.00000	881.00000	1190.00000
1174.45726	1.66014	0.02187	15420.71473	898.79570	1216.41550	1172.44991	0.02192	15273.00000	903.00000	1218.00000
1180.65161	1.65951	0.02190	15876.41905	861.08105	1189.94963	1178.64028	0.02188	15728.00000	875.00000	1200.00000
1186.84597	1.65822	0.02197	16371.22020	852.06070	1192.97733	1184.83065	0.02195	16201.00000	846.00000	1183.00000
1193.04032	1.65684	0.02204	16894.18264	880.38932	1233.29425	1191.02102	0.02201	16730.00000	875.00000	1224.00000
1199.23468	1.65571	0.02209	17400.55626	883.09277	1248.04286	1197.21139	0.02208	17229.00000	882.00000	1243.00000
1205.42903	1.65553	0.02210	17922.85290	876.52702	1253.31915	1203.40176	0.02210	17758.00000	882.00000	1255.00000
1211.62339	1.65626	0.02207	18412.23826	867.41129	1254.56585	1209.59213	0.02209	18250.00000	866.00000	1250.00000
1217.81774	1.65698	0.02203	18946.64823	877.09601	1275.17730	1215.78250	0.02203	18763.00000	876.00000	1270.00000
1224.01210	1.65662	0.02205	19522.38589	879.59709	1290.63510	1221.97287	0.02205	19334.00000	877.00000	1284.00000
1230.20645	1.65606	0.02208	20046.82356	877.27220	1300.49122	1228.16324	0.02205	19884.00000	882.00000	1301.00000
1236.40081	1.65454	0.02215	20578.92550	894.33634	1330.43198	1234.35361	0.02214	20387.00000	878.00000	1310.00000
1242.59516	1.65447	0.02216	21116.97255	904.50586	1352.37813	1240.54398	0.02215	20962.00000	919.00000	1363.00000
1248.78952	1.65524	0.02212	21555.61107	852.78714	1310.69739	1246.73435	0.02215	21399.00000	858.00000	1313.00000
1254.98387	1.65641	0.02206	22112.97196	897.03001	1365.03223	1252.92472	0.02205	21917.00000	878.00000	1342.00000
1261.17823	1.65337	0.02221	22669.33634	902.45329	1386.00381	1259.11509	0.02215	22498.00000	915.00000	1393.00000
1267.37258	1.65300	0.02223	23144.86310	840.51764	1336.37913	1265.30546	0.02228	22985.00000	857.00000	1350.00000
1273.56694	1.65358	0.02220	23720.39347	860.92978	1368.52882	1271.49583	0.02215	23506.00000	841.00000	1343.00000
1279.76129	1.65073	0.02235	24372.77955	913.59084	1437.85843	1277.68620	0.02236	24166.00000	906.00000	1426.00000
1285.95565	1.65240	0.02226	24945.52650	893.87771	1429.38591	1283.87657	0.02226	24754.00000	903.00000	1434.00000
1292.15000	1.65257	0.02226	25532.41484	877.59600	1426.27221	1290.06694	0.02229	25332.00000	880.00000	1425.00000
1298.34435	1.65375	0.02219	26175.67024	884.75253	1446.10258	1296.25731	0.02218	25949.00000	881.00000	1437.00000
1304.53871	1.65207	0.02228	26805.92834	868.00311	1445.91159	1302.44769	0.02227	26610.00000	881.00000	1454.00000
1310.73306	1.65328	0.02222	27432.03993	867.23944	1457.47702	1308.63806	0.02224	27196.00000	853.00000	1439.00000
1316.92742	1.65319	0.02222	28161.82657	892.73544	1498.75271	1314.82843	0.02220	27925.00000	899.00000	1499.00000
1323.12177	1.65210	0.02228	28842.74169	862.95220	1486.30463	1321.01880	0.02228	28606.00000	864.00000	1482.00000
1329.31613	1.65206	0.02228	29519.54369	871.94640	1510.26812	1327.20917	0.02227	29300.00000	874.00000	1507.00000
1335.51048	1.65136	0.02232	30183.25265	863.66515	1517.98794	1333.39954	0.02232	29944.00000	862.00000	1511.00000
1341.70484	1.65075	0.02235	30926.51890	893.32929	1564.53384	1339.58991	0.02232	30673.00000	881.00000	1546.00000
1347.89919	1.64934	0.02242	31587.63481	894.88004	1583.04743	1345.78028	0.02241	31380.00000	904.00000	1587.00000
1354.09355	1.65032	0.02237	32227.78710	859.30420	1561.04172	1351.97065	0.02240	31988.00000	867.00000	1564.00000
1360.28790	1.65128	0.02232	32929.95072	867.11433	1582.80316	1358.16102	0.02233	32704.00000	861.00000	1572.00000
1366.48226	1.65096	0.02234	33569.06337	866.55753	1597.04875	1364.35139	0.02233	33341.00000	873.00000	1598.00000
1372.67661	1.64993	0.02239	34261.83351	843.87902	1592.14400	1370.54176	0.02237	34024.00000	848.00000	1590.00000
1378.87097	1.64974	0.02240	34838.67465	870.52277	1631.42213	1376.73213	0.02242	34668.00000	855.00000	1613.00000
1385.06532	1.64911	0.02243	35121.03064	877.10458	1645.30802	1382.92250	0.02239	35059.00000	888.00000	1653.00000
1391.25968	1.64733	0.02253	35289.43299	872.38486	1647.62975	1389.11287	0.02253	35214.00000	858.00000	1632.00000
1397.45403	1.64808	0.02249	35460.60298	899.47130	1676.62043	1395.30324	0.02248	35427.00000	906.00000	1682.00000
1403.64839	1.64745	0.02252	35666.10671	869.36576	1652.95298	1401.49361	0.02252	35545.00000	870.00000	1651.00000
1409.84274	1.64925	0.02243	36323.03255	883.09719	1677.84844	1407.68398	0.02246	36050.00000	883.00000	1673.00000
1416.03710	1.64968	0.02240	37284.68636	884.03189	1699.57064	1413.87435	0.02239	36926.00000	879.00000	1686.00000
1422.23145	1.64923	0.02243	38329.42739	892.53935	1732.11806	1420.06472	0.02244	37970.00000	895.00000	1727.00000
1428.42581	1.64968	0.02240	39434.74114	878.71439	1742.54200	1426.25509	0.02239	39022.00000	881.00000	1735.00000
1434.62016	1.64849	0.02247	40575.07439	880.06733	1771.80922	1432.44546	0.02246	40203.00000	880.00000	1763.00000
1440.81452	1.64886	0.02245	41493.68414	879.47622	1791.09229	1438.63583	0.02245	41184.00000	879.00000	1784.00000
1447.00887	1.64780	0.02250	42510.04768	905.41306	1841.59006	1444.82620	0.02246	42113.00000	891.00000	1817.00000
1453.20323	1.64752	0.02252	43543.72896	892.86717	1853.14924	1451.01657	0.02255	43229.00000	914.00000	1868.00000
1459.39758	1.64868	0.02246	44405.02794	864.61268	1842.36459	1457.20694	0.02245	44070.00000	855.00000	1825.00000
1465.59194	1.64725	0.02253	45481.34063	906.97918	1911.20564	1463.39731	0.02252	45094.00000	903.00000	1898.00000
1471.78629	1.64670	0.02256	46480.51435	890.87025	1919.30106	1469.58768	0.02254	46150.00000	894.00000	1914.00000
1477.98065	1.64564	0.02261	47320.91755	868.50781	1918.94223	1475.77805	0.02260	47029.00000	883.00000	1926.00000
1484.17500	1.64520	0.02264	48225.65661	857.63729	1929.85640	1481.96842	0.02262	47881.00000	849.00000	1913.00000
1490.36935	1.64394	0.02270	49092.30051	893.89890	1988.08421	1488.15879	0.02268	48824.00000	887.00000	1974.00000
1496.56371	1.64384	0.02271	49778.04514	887.35808	1997.49298	1494.34916	0.02272	49521.00000	891.00000	1996.00000
1502.75806	1.64367	0.02272	50469.48096	863.36996	1990.23087	1500.53953	0.02269	50241.00000	875.00000	1995.00000
1508.95242	1.64275	0.02276	51158.04064	897.54966	2041.65266	1506.72990	0.02277	50884.00000	867.00000	2006.00000
1515.14677	1.64298	0.02275	51878.91086	902.58342	2062.43033	1512.92027	0.02273	51650.00000	933.00000	2086.00000
1521.34113	1.64218	0.02279	52577.57434	850.45197	2029.51289	1519.11064	0.02280	52288.00000	838.00000	2011.00000
1527.53548	1.64186	0.02281	53324.26188	911.75147	2107.34364	1525.30101	0.02278	53098.00000	907.00000	2096.00000
1533.72984	1.64020	0.02290	53919.19306	885.74627	2100.10861	1531.49138	0.02288	53680.00000	890.00000	2098.00000
1539.92419	1.64065	0.02287	54593.00479	874.24673	2103.04010	1537.68175	0.02289	54367.00000	884.00000	2108.00000
1546.11855	1.64010	0.02290	55208.54831	866.87961	2111.49317	1543.87212	0.02288	54973.00000	860.00000	2098.00000
1552.31290	1.63824	0.02300	55811.51925	888.84465	2152.16637	1550.06249	0.02297	55614.00000	887.00000	2144.00000
1558.50726	1.63721	0.02306	56431.29012	888.46797	2169.08352	1556.25286	0.02304	56172.00000	885.00000	2159.00000
1564.70161	1.63770	0.02303	57011.94896	890.80855	2183.28653	1562.44323	0.02305	56858.00000	895.00000	2185.00000
1570.89597	1.63742	0.02305	57413.89650	869.93991	2173.01240	1568.63360	0.02301	57231.00000	876.00000	2173.00000
1577.09032	1.63551	0.02315	57979.03512	879.44141	2201.11487	1574.82397	0.02312	57786.00000	871.00000	2187.00000
1583.28468	1.63520	0.02316	58450.11400	894.72676	2227.88528	1581.01434	0.02316	58279.00000	894.00000	2223.00000
1589.47903	1.63475	0.02319	58825.25008	895.18773	2238.42670	1587.20471	0.02318	58712.00000	892.00000	2232.00000
1595.67339	1.63478	0.02319	59146.72764	885.70009	2236.50873	1593.39508	0.02320	59009.00000	896.00000	2244.00000
1601.86774	1.63437	0.02321	59574.82387	893.37146	2255.22763	1599.58545	0.02318	59419.00000	877.00000	2234.00000
1608.06210	1.63316	0.02327	59920.72690	909.46488	2282.79490	1605.77582	0.02326	59809.00000	920.00000	2290.00000
1614.25645	1.63219	0.02332	60220.95853	887.30010	2271.21546	1611.96619	0.02329	60102.00000	882.00000	2261.00000
1620.45081	1.63123	0.02338	60438.83040	897.12192	2288.95629	1618.15656	0.02338	60391.00000	905.00000	2296.00000
1626.64516	1.63148	0.02336	60579.30309	884.35356	2278.98628	1624.34693	0.02335	60502.00000	878.00000	2270.00000
1632.83952	1.63060	0.02341	60848.95373	899.57786	2302.99638	1630.53730	0.02341	60754.00000	903.00000	2304.00000
1639.03387	1.63084	0.02340	60928.35809	870.27700	2275.44507	1636.72767	0.02339	60938.00000	879.00000	2284.00000
1645.22823	1.62994	0.02345	60778.06969	873.98452	2278.48671	1642.91804	0.02342	60849.00000	868.00000	2273.00000
1651.42258	1.62831	0.02353	59777.88214	914.49031	2299.74239	1649.10841	0.02349	60357.00000	896.00000	2293.00000
1657.61694	1.62699	0.02361	57642.70006	920.63108	2259.56922	1655.29878	0.02359	58452.00000	931.00000	2288.00000
1663.81129	1.62759	0.02357	56689.89176	898.36344	2213.57447	1661.48915	0.02359	56762.00000	897.00000	2215.00000
1670.00565	1.62594	0.02366	55553.85124	917.06266	2209.75052	1667.67952	0.02359	56404.00000	914.00000	2223.00000
1676.20000	1.62349	0.02380	52318.47966	879.24303	2103.48866	1673.86989	0.02379	53497.00000	901.00000	2152.00000
0.00000	0.00000	0.00000	0.00000	0.00000	0.00000	1680.06026	0.02380	50136.00000	860.00000	2033.00000
0.00000	0.00000	0.00000	0.00000	0.00000	0.00000	1686.25063	0.02402	46019.00000	923.00000	2006.00000
0.00000	0.00000	0.00000	0.00000	0.00000	0.00000	1692.44100	0.02402	46019.00000	923.00000	2006.00000
