'File 地沟油_1_2016一月28_1115.xls
'Part ID 地沟油_1
'Scan Created 2016/1/28 11:15:42
'Instrument S1-00205
'Version 1.5.7
'Integration Time 10100 s
'Number of Scans 50
'Units Absorbance
'Thermistor 47.75
Wavelength	Absorbance	Normalized	100%	dark	Raw 1	Native Wvl	Native Norm	Native 100%	Native dark	Native 1
908.10000	1.53812	0.02897	3595.82598	881.87120	960.65969	906.26400	0.02996	3684.00000	880.00000	964.00000
914.29435	1.55322	0.02798	3338.07467	866.26472	935.32271	912.45437	0.02769	3404.00000	876.00000	946.00000
920.48871	1.53429	0.02922	3265.72768	878.51909	948.31502	918.64474	0.02920	3257.00000	860.00000	930.00000
926.68306	1.55308	0.02798	3334.01990	918.74175	986.31257	924.83511	0.02833	3324.00000	924.00000	992.00000
932.87742	1.55141	0.02809	3389.36197	864.93184	935.87154	931.02548	0.02782	3355.00000	875.00000	944.00000
939.07177	1.53711	0.02903	3619.59224	884.95115	964.34260	937.21585	0.02890	3537.00000	873.00000	950.00000
945.26613	1.55045	0.02815	3856.44440	889.93616	973.42517	943.40622	0.02860	3802.00000	900.00000	983.00000
951.46048	1.55830	0.02765	4005.12223	859.91735	946.94190	949.59659	0.02745	3955.00000	859.00000	944.00000
957.65484	1.55440	0.02790	4215.51392	893.73656	986.33819	955.78696	0.02819	4148.00000	885.00000	977.00000
963.84919	1.56850	0.02701	4374.23623	878.43417	972.90714	961.97733	0.02693	4344.00000	891.00000	984.00000
970.04355	1.55951	0.02757	4523.41127	896.06510	996.04534	968.16770	0.02764	4453.00000	871.00000	970.00000
976.23790	1.57156	0.02682	4726.50938	925.04592	1027.01609	974.35807	0.02695	4693.00000	945.00000	1046.00000
982.43226	1.56495	0.02723	4835.26800	856.06452	964.41449	980.54844	0.02701	4778.00000	854.00000	960.00000
988.62661	1.55543	0.02783	5079.18703	905.14928	1021.34172	986.73881	0.02772	5013.00000	901.00000	1015.00000
994.82097	1.56184	0.02743	5288.13901	870.37131	991.49882	992.92918	0.02768	5216.00000	881.00000	1001.00000
1001.01532	1.56883	0.02699	5547.24444	876.96250	1003.03955	999.11955	0.02694	5470.00000	867.00000	991.00000
1007.20968	1.56384	0.02730	5821.73207	889.84005	1024.44283	1005.30992	0.02731	5729.00000	896.00000	1028.00000
1013.40403	1.56588	0.02717	6108.36987	875.33513	1017.54837	1011.50029	0.02713	6031.00000	870.00000	1010.00000
1019.59839	1.56121	0.02747	6349.51155	919.49996	1068.62772	1017.69066	0.02742	6269.00000	908.00000	1055.00000
1025.79274	1.56226	0.02740	6610.09178	908.88037	1065.09959	1023.88103	0.02743	6536.00000	921.00000	1075.00000
1031.98710	1.56444	0.02726	6863.27600	885.10537	1048.07079	1030.07140	0.02732	6776.00000	883.00000	1044.00000
1038.18145	1.56352	0.02732	7137.95533	879.30949	1050.31701	1036.26177	0.02723	7062.00000	892.00000	1060.00000
1044.37581	1.56054	0.02751	7415.45215	852.78191	1033.28909	1042.45214	0.02753	7313.00000	848.00000	1026.00000
1050.57016	1.56532	0.02721	7763.75520	889.74850	1076.77922	1048.64251	0.02729	7664.00000	884.00000	1069.00000
1056.76452	1.56658	0.02713	8043.98752	873.54577	1068.05535	1054.83288	0.02713	7958.00000	881.00000	1073.00000
1062.95887	1.56272	0.02737	8346.47029	875.55305	1080.04910	1061.02325	0.02724	8246.00000	868.00000	1069.00000
1069.15323	1.55843	0.02764	8651.05608	883.28349	1097.98411	1067.21362	0.02763	8564.00000	890.00000	1102.00000
1075.34758	1.55908	0.02760	8931.01237	859.29405	1082.09319	1073.40399	0.02758	8836.00000	860.00000	1080.00000
1081.54194	1.55862	0.02763	9243.78719	871.40916	1102.72663	1079.59436	0.02766	9149.00000	870.00000	1099.00000
1087.73629	1.56088	0.02749	9580.78777	901.76500	1140.32766	1085.78473	0.02751	9462.00000	883.00000	1119.00000
1093.93065	1.56043	0.02752	9940.76391	922.65990	1170.79108	1091.97510	0.02750	9841.00000	933.00000	1178.00000
1100.12500	1.56051	0.02751	10254.38783	869.25749	1127.44517	1098.16547	0.02752	10144.00000	878.00000	1133.00000
1106.31935	1.56140	0.02745	10641.04469	875.00467	1143.11534	1104.35584	0.02747	10519.00000	873.00000	1138.00000
1112.51371	1.56147	0.02745	11015.80766	872.41348	1150.84697	1110.54621	0.02744	10897.00000	874.00000	1149.00000
1118.70806	1.56080	0.02749	11401.60672	872.77123	1162.22159	1116.73658	0.02749	11276.00000	871.00000	1157.00000
1124.90242	1.56028	0.02752	11814.30888	885.70510	1186.52262	1122.92695	0.02750	11680.00000	881.00000	1178.00000
1131.09677	1.56007	0.02754	12236.17715	886.26842	1198.80777	1129.11732	0.02756	12103.00000	890.00000	1199.00000
1137.29113	1.55978	0.02756	12606.57558	854.95675	1178.80420	1135.30769	0.02751	12498.00000	867.00000	1187.00000
1143.48548	1.55873	0.02762	12995.31207	851.62722	1187.04807	1141.49806	0.02765	12851.00000	843.00000	1175.00000
1149.67984	1.55934	0.02758	13491.13514	894.93569	1242.41519	1147.68843	0.02755	13335.00000	884.00000	1227.00000
1155.87419	1.55644	0.02777	13953.07917	885.15852	1248.02336	1153.87880	0.02773	13805.00000	896.00000	1254.00000
1162.06855	1.55547	0.02783	14446.12872	862.12568	1240.19786	1160.06917	0.02780	14279.00000	862.00000	1235.00000
1168.26290	1.55516	0.02785	14959.02414	891.75197	1283.52940	1166.25954	0.02788	14800.00000	881.00000	1269.00000
1174.45726	1.55668	0.02775	15420.71473	898.79570	1301.83545	1172.44991	0.02777	15273.00000	903.00000	1302.00000
1180.65161	1.55501	0.02786	15876.41905	861.08105	1279.41495	1178.64028	0.02781	15728.00000	875.00000	1288.00000
1186.84597	1.55173	0.02807	16371.22020	852.06070	1287.71754	1184.83065	0.02800	16201.00000	846.00000	1276.00000
1193.04032	1.55141	0.02809	16894.18264	880.38932	1330.23292	1191.02102	0.02813	16730.00000	875.00000	1321.00000
1199.23468	1.55197	0.02806	17400.55626	883.09277	1346.53316	1197.21139	0.02802	17229.00000	882.00000	1340.00000
1205.42903	1.54909	0.02824	17922.85290	876.52702	1357.94931	1203.40176	0.02821	17758.00000	882.00000	1358.00000
1211.62339	1.54920	0.02824	18412.23826	867.41129	1362.80503	1209.59213	0.02824	18250.00000	866.00000	1357.00000
1217.81774	1.54906	0.02824	18946.64823	877.09601	1387.46534	1215.78250	0.02823	18763.00000	876.00000	1381.00000
1224.01210	1.54826	0.02830	19522.38589	879.59709	1407.13470	1221.97287	0.02828	19334.00000	877.00000	1399.00000
1230.20645	1.54799	0.02831	20046.82356	877.27220	1420.03765	1228.16324	0.02831	19884.00000	882.00000	1420.00000
1236.40081	1.54679	0.02839	20578.92550	894.33634	1453.25107	1234.35361	0.02835	20387.00000	878.00000	1431.00000
1242.59516	1.54512	0.02850	21116.97255	904.50586	1480.58881	1240.54398	0.02849	20962.00000	919.00000	1490.00000
1248.78952	1.54391	0.02858	21555.61107	852.78714	1444.53760	1246.73435	0.02853	21399.00000	858.00000	1444.00000
1254.98387	1.54329	0.02862	22112.97196	897.03001	1504.25654	1252.92472	0.02866	21917.00000	878.00000	1481.00000
1261.17823	1.54378	0.02859	22669.33634	902.45329	1524.81294	1259.11509	0.02854	22498.00000	915.00000	1531.00000
1267.37258	1.54136	0.02875	23144.86310	840.51764	1481.73722	1265.30546	0.02874	22985.00000	857.00000	1493.00000
1273.56694	1.54115	0.02876	23720.39347	860.92978	1518.49119	1271.49583	0.02872	23506.00000	841.00000	1492.00000
1279.76129	1.53885	0.02892	24372.77955	913.59084	1591.93918	1277.68620	0.02889	24166.00000	906.00000	1578.00000
1285.95565	1.53829	0.02895	24945.52650	893.87771	1590.28101	1283.87657	0.02893	24754.00000	903.00000	1593.00000
1292.15000	1.53786	0.02898	25532.41484	877.59600	1592.13792	1290.06694	0.02900	25332.00000	880.00000	1589.00000
1298.34435	1.53763	0.02900	26175.67024	884.75253	1618.15134	1296.25731	0.02896	25949.00000	881.00000	1607.00000
1304.53871	1.53542	0.02915	26805.92834	868.00311	1623.98813	1302.44769	0.02911	26610.00000	881.00000	1630.00000
1310.73306	1.53553	0.02914	27432.03993	867.23944	1641.28201	1308.63806	0.02915	27196.00000	853.00000	1621.00000
1316.92742	1.53421	0.02923	28161.82657	892.73544	1689.75810	1314.82843	0.02916	27925.00000	899.00000	1687.00000
1323.12177	1.53165	0.02940	28842.74169	862.95220	1685.53752	1321.01880	0.02938	28606.00000	864.00000	1679.00000
1329.31613	1.53087	0.02945	29519.54369	871.94640	1715.73544	1327.20917	0.02941	29300.00000	874.00000	1710.00000
1335.51048	1.52981	0.02953	30183.25265	863.66515	1729.30843	1333.39954	0.02954	29944.00000	862.00000	1721.00000
1341.70484	1.53041	0.02948	30926.51890	893.32929	1778.85525	1339.58991	0.02947	30673.00000	881.00000	1759.00000
1347.89919	1.52875	0.02960	31587.63481	894.88004	1803.30370	1345.78028	0.02956	31380.00000	904.00000	1805.00000
1354.09355	1.52942	0.02955	32227.78710	859.30420	1786.26143	1351.97065	0.02959	31988.00000	867.00000	1788.00000
1360.28790	1.52882	0.02959	32929.95072	867.11433	1815.95925	1358.16102	0.02952	32704.00000	861.00000	1801.00000
1366.48226	1.52645	0.02975	33569.06337	866.55753	1839.55648	1364.35139	0.02975	33341.00000	873.00000	1839.00000
1372.67661	1.52618	0.02977	34261.83351	843.87902	1838.85719	1370.54176	0.02972	34024.00000	848.00000	1834.00000
1378.87097	1.52434	0.02990	34838.67465	870.52277	1886.12616	1376.73213	0.02990	34668.00000	855.00000	1866.00000
1385.06532	1.52376	0.02994	35121.03064	877.10458	1902.35318	1382.92250	0.02988	35059.00000	888.00000	1909.00000
1391.25968	1.52101	0.03013	35289.43299	872.38486	1909.33334	1389.11287	0.03010	35214.00000	858.00000	1892.00000
1397.45403	1.52092	0.03014	35460.60298	899.47130	1940.99878	1395.30324	0.03013	35427.00000	906.00000	1946.00000
1403.64839	1.51939	0.03024	35666.10671	869.36576	1921.68826	1401.49361	0.03019	35545.00000	870.00000	1917.00000
1409.84274	1.51826	0.03032	36323.03255	883.09719	1957.63677	1407.68398	0.03031	36050.00000	883.00000	1949.00000
1416.03710	1.51794	0.03034	37284.68636	884.03189	1988.56265	1413.87435	0.03032	36926.00000	879.00000	1972.00000
1422.23145	1.51694	0.03041	38329.42739	892.53935	2031.08138	1420.06472	0.03040	37970.00000	895.00000	2022.00000
1428.42581	1.51607	0.03047	39434.74114	878.71439	2053.68071	1426.25509	0.03044	39022.00000	881.00000	2042.00000
1434.62016	1.51487	0.03056	40575.07439	880.06733	2093.07271	1432.44546	0.03054	40203.00000	880.00000	2081.00000
1440.81452	1.51461	0.03058	41493.68414	879.47622	2121.32273	1438.63583	0.03057	41184.00000	879.00000	2111.00000
1447.00887	1.51365	0.03064	42510.04768	905.41306	2180.36553	1444.82620	0.03061	42113.00000	891.00000	2153.00000
1453.20323	1.51342	0.03066	43543.72896	892.86717	2200.55819	1451.01657	0.03067	43229.00000	914.00000	2212.00000
1459.39758	1.51342	0.03066	44405.02794	864.61268	2199.60098	1457.20694	0.03064	44070.00000	855.00000	2179.00000
1465.59194	1.51292	0.03070	45481.34063	906.97918	2275.20620	1463.39731	0.03071	45094.00000	903.00000	2260.00000
1471.78629	1.51289	0.03070	46480.51435	890.87025	2290.42167	1469.58768	0.03067	46150.00000	894.00000	2282.00000
1477.98065	1.51171	0.03078	47320.91755	868.50781	2298.35352	1475.77805	0.03077	47029.00000	883.00000	2303.00000
1484.17500	1.51114	0.03082	48225.65661	857.63729	2317.63633	1481.96842	0.03079	47881.00000	849.00000	2297.00000
1490.36935	1.50997	0.03091	49092.30051	893.89890	2383.46586	1488.15879	0.03089	48824.00000	887.00000	2368.00000
1496.56371	1.50963	0.03093	49778.04514	887.35808	2399.52799	1494.34916	0.03091	49521.00000	891.00000	2394.00000
1502.75806	1.50832	0.03102	50469.48096	863.36996	2402.26632	1500.53953	0.03099	50241.00000	875.00000	2405.00000
1508.95242	1.50723	0.03110	51158.04064	897.54966	2460.70067	1506.72990	0.03107	50884.00000	867.00000	2421.00000
1515.14677	1.50625	0.03117	51878.91086	902.58342	2491.57252	1512.92027	0.03115	51650.00000	933.00000	2513.00000
1521.34113	1.50563	0.03122	52577.57434	850.45197	2465.12672	1519.11064	0.03120	52288.00000	838.00000	2443.00000
1527.53548	1.50430	0.03131	53324.26188	911.75147	2552.86463	1525.30101	0.03127	53098.00000	907.00000	2539.00000
1533.72984	1.50273	0.03142	53919.19306	885.74627	2552.28758	1531.49138	0.03139	53680.00000	890.00000	2547.00000
1539.92419	1.50193	0.03148	54593.00479	874.24673	2565.44765	1537.68175	0.03147	54367.00000	884.00000	2567.00000
1546.11855	1.50123	0.03153	55208.54831	866.87961	2580.45494	1543.87212	0.03151	54973.00000	860.00000	2565.00000
1552.31290	1.49925	0.03168	55811.51925	888.84465	2628.65100	1550.06249	0.03161	55614.00000	887.00000	2617.00000
1558.50726	1.49753	0.03180	56431.29012	888.46797	2654.88353	1556.25286	0.03178	56172.00000	885.00000	2642.00000
1564.70161	1.49740	0.03181	57011.94896	890.80855	2676.17316	1562.44323	0.03181	56858.00000	895.00000	2675.00000
1570.89597	1.49631	0.03189	57413.89650	869.93991	2673.28704	1568.63360	0.03185	57231.00000	876.00000	2671.00000
1577.09032	1.49516	0.03198	57979.03512	879.44141	2705.32416	1574.82397	0.03196	57786.00000	871.00000	2690.00000
1583.28468	1.49403	0.03206	58450.11400	894.72676	2740.00640	1581.01434	0.03201	58279.00000	894.00000	2731.00000
1589.47903	1.49307	0.03213	58825.25008	895.18773	2756.56040	1587.20471	0.03213	58712.00000	892.00000	2750.00000
1595.67339	1.49243	0.03218	59146.72764	885.70009	2760.47617	1593.39508	0.03213	59009.00000	896.00000	2763.00000
1601.86774	1.49025	0.03234	59574.82387	893.37146	2791.18520	1599.58545	0.03230	59419.00000	877.00000	2768.00000
1608.06210	1.49031	0.03234	59920.72690	909.46488	2817.67623	1605.77582	0.03235	59809.00000	920.00000	2825.00000
1614.25645	1.48983	0.03237	60220.95853	887.30010	2808.05004	1611.96619	0.03234	60102.00000	882.00000	2797.00000
1620.45081	1.48860	0.03246	60438.83040	897.12192	2830.05171	1618.15656	0.03244	60391.00000	905.00000	2835.00000
1626.64516	1.48781	0.03252	60579.30309	884.35356	2825.81057	1624.34693	0.03249	60502.00000	878.00000	2815.00000
1632.83952	1.48641	0.03263	60848.95373	899.57786	2855.59617	1630.53730	0.03260	60754.00000	903.00000	2854.00000
1639.03387	1.48547	0.03270	60928.35809	870.27700	2834.07897	1636.72767	0.03267	60938.00000	879.00000	2841.00000
1645.22823	1.48469	0.03276	60778.06969	873.98452	2836.32096	1642.91804	0.03274	60849.00000	868.00000	2832.00000
1651.42258	1.48169	0.03298	59777.88214	914.49031	2855.97757	1649.10841	0.03285	60357.00000	896.00000	2849.00000
1657.61694	1.47672	0.03336	57642.70006	920.63108	2813.16233	1655.29878	0.03326	58452.00000	931.00000	2844.00000
1663.81129	1.47629	0.03340	56689.89176	898.36344	2761.68124	1661.48915	0.03342	56762.00000	897.00000	2764.00000
1670.00565	1.47462	0.03353	55553.85124	917.06266	2748.60705	1667.67952	0.03341	56404.00000	914.00000	2768.00000
1676.20000	1.47044	0.03385	52318.47966	879.24303	2620.69403	1673.86989	0.03377	53497.00000	901.00000	2677.00000
0.00000	0.00000	0.00000	0.00000	0.00000	0.00000	1680.06026	0.03395	50136.00000	860.00000	2533.00000
0.00000	0.00000	0.00000	0.00000	0.00000	0.00000	1686.25063	0.03422	46019.00000	923.00000	2466.00000
0.00000	0.00000	0.00000	0.00000	0.00000	0.00000	1692.44100	0.03422	46019.00000	923.00000	2466.00000
