'File ÄÌ·Û_4_2016Ò»ÔÂ28_1046.xls
'Part ID ÄÌ·Û_4
'Scan Created 2016/1/28 10:46:42
'Instrument S1-00205
'Version 1.5.7
'Integration Time 10100 µs
'Number of Scans 50
'Units Absorbance
'Thermistor 44.52
Wavelength	Absorbance	Normalized	100%	dark	Raw 1	Native Wvl	Native Norm	Native 100%	Native dark	Native 1
908.10000	0.23270	0.58520	3514.15951	877.71219	2419.61701	906.26400	0.57600	3596.00000	879.00000	2444.00000
914.29435	0.21071	0.61559	3281.25113	863.65831	2352.15524	912.45437	0.60672	3339.00000	870.00000	2368.00000
920.48871	0.19049	0.64493	3227.40662	877.32414	2392.99078	918.64474	0.63621	3216.00000	863.00000	2360.00000
926.68306	0.17092	0.67465	3307.28228	905.48228	2525.76464	924.83511	0.66569	3291.00000	910.00000	2495.00000
932.87742	0.15181	0.70500	3382.42130	864.28145	2639.61114	931.02548	0.69592	3345.00000	872.00000	2593.00000
939.07177	0.13436	0.73391	3608.15965	881.02078	2882.54768	937.21585	0.72563	3528.00000	871.00000	2799.00000
945.26613	0.12092	0.75697	3846.64039	885.69520	3126.99047	943.40622	0.75095	3789.00000	894.00000	3068.00000
951.46048	0.11269	0.77146	4004.44998	860.87297	3286.02429	949.59659	0.76794	3954.00000	860.00000	3236.00000
957.65484	0.10868	0.77860	4209.47249	887.01493	3473.87282	955.78696	0.77713	4143.00000	881.00000	3416.00000
963.84919	0.10658	0.78239	4374.85740	871.56767	3612.54204	961.97733	0.78115	4341.00000	882.00000	3584.00000
970.04355	0.10593	0.78355	4520.56130	886.05989	3733.86233	968.16770	0.78412	4456.00000	866.00000	3681.00000
976.23790	0.10970	0.77679	4717.71427	911.39747	3868.07452	974.35807	0.77938	4679.00000	926.00000	3851.00000
982.43226	0.11365	0.76974	4843.76664	857.92770	3926.02407	980.54844	0.77125	4787.00000	857.00000	3888.00000
988.62661	0.11436	0.76850	5076.97721	894.34516	4108.70839	986.73881	0.76845	5011.00000	891.00000	4057.00000
994.82097	0.11413	0.76889	5297.39601	869.00992	4273.94591	992.92918	0.76893	5222.00000	877.00000	4218.00000
1001.01532	0.11492	0.76751	5554.06756	873.41459	4465.86833	999.11955	0.76810	5480.00000	866.00000	4410.00000
1007.20968	0.11575	0.76604	5827.05497	883.56657	4670.41685	1005.30992	0.76626	5731.00000	888.00000	4599.00000
1013.40403	0.11394	0.76924	6120.28754	870.80251	4908.92654	1011.50029	0.76743	6045.00000	868.00000	4841.00000
1019.59839	0.11041	0.77552	6348.68404	901.94795	5125.97013	1017.69066	0.77404	6270.00000	893.00000	5055.00000
1025.79274	0.10870	0.77857	6618.61076	896.05363	5351.48460	1023.88103	0.77764	6540.00000	905.00000	5287.00000
1031.98710	0.10655	0.78244	6878.79036	877.64868	5573.16060	1030.07140	0.78110	6792.00000	876.00000	5497.00000
1038.18145	0.10397	0.78711	7153.19229	875.20158	5816.66208	1036.26177	0.78566	7075.00000	884.00000	5748.00000
1044.37581	0.10176	0.79112	7435.03734	854.54502	6060.50311	1042.45214	0.79003	7334.00000	852.00000	5973.00000
1050.57016	0.10018	0.79401	7778.63216	881.04291	6357.74533	1048.64251	0.79315	7678.00000	876.00000	6271.00000
1056.76452	0.09840	0.79726	8066.37003	871.22278	6607.67006	1054.83288	0.79611	7979.00000	877.00000	6531.00000
1062.95887	0.09666	0.80046	8367.94643	870.25694	6871.78452	1061.02325	0.79968	8268.00000	865.00000	6785.00000
1069.15323	0.09557	0.80248	8674.59951	877.92605	7134.62550	1067.21362	0.80179	8586.00000	882.00000	7059.00000
1075.34758	0.09412	0.80516	8958.19691	861.24829	7380.62166	1073.40399	0.80427	8863.00000	862.00000	7297.00000
1081.54194	0.09271	0.80777	9269.61857	868.88623	7654.74620	1079.59436	0.80703	9175.00000	868.00000	7572.00000
1087.73629	0.09169	0.80967	9599.77547	889.96693	7942.04820	1085.78473	0.80913	9485.00000	877.00000	7842.00000
1093.93065	0.09091	0.81114	9958.85840	903.23915	8248.59030	1091.97510	0.81071	9855.00000	911.00000	8162.00000
1100.12500	0.09048	0.81193	10287.04131	864.70017	8514.98671	1098.16547	0.81180	10175.00000	871.00000	8424.00000
1106.31935	0.09040	0.81208	10673.09117	870.26271	8830.97600	1104.35584	0.81202	10550.00000	868.00000	8730.00000
1112.51371	0.09035	0.81218	11054.17109	867.39097	9140.88948	1110.54621	0.81220	10934.00000	870.00000	9044.00000
1118.70806	0.09090	0.81115	11440.58269	866.80701	9443.75240	1116.73658	0.81169	11315.00000	864.00000	9347.00000
1124.90242	0.09281	0.80759	11853.47185	879.92340	9742.04388	1122.92695	0.80908	11719.00000	877.00000	9649.00000
1131.09677	0.09675	0.80030	12279.20991	877.48685	10002.16623	1129.11732	0.80309	12144.00000	880.00000	9926.00000
1137.29113	0.10267	0.78945	12658.45812	855.49825	10173.47679	1135.30769	0.79319	12547.00000	865.00000	10131.00000
1143.48548	0.10974	0.77671	13049.18681	852.30684	10325.63522	1141.49806	0.78095	12906.00000	845.00000	10264.00000
1149.67984	0.11724	0.76342	13533.98158	886.77209	10542.10916	1147.68843	0.76766	13382.00000	879.00000	10477.00000
1155.87419	0.12603	0.74811	13997.40073	876.37382	10692.12300	1153.87880	0.75363	13845.00000	885.00000	10652.00000
1162.06855	0.13628	0.73067	14503.46887	861.13988	10829.25664	1160.06917	0.73596	14335.00000	860.00000	10777.00000
1168.26290	0.14472	0.71660	15009.58309	885.01032	11006.71586	1166.25954	0.72088	14853.00000	877.00000	10952.00000
1174.45726	0.15305	0.70300	15471.50866	888.01740	11140.09010	1172.44991	0.70762	15322.00000	892.00000	11103.00000
1180.65161	0.16196	0.68871	15938.18293	858.48109	11244.06284	1178.64028	0.69317	15786.00000	869.00000	11209.00000
1186.84597	0.16947	0.67691	16436.20435	853.30650	11401.45432	1184.83065	0.68039	16267.00000	848.00000	11339.00000
1193.04032	0.17463	0.66891	16954.92806	876.34677	11631.48771	1191.02102	0.67102	16791.00000	872.00000	11554.00000
1199.23468	0.17739	0.66468	17462.35109	876.98642	11900.94051	1197.21139	0.66577	17291.00000	877.00000	11805.00000
1205.42903	0.17843	0.66309	17986.83670	869.01927	12219.65298	1203.40176	0.66328	17820.00000	874.00000	12114.00000
1211.62339	0.17663	0.66584	18479.84056	863.23699	12593.12967	1209.59213	0.66426	18318.00000	861.00000	12457.00000
1217.81774	0.17112	0.67434	19014.17361	874.89956	13106.93103	1215.78250	0.67103	18829.00000	873.00000	12922.00000
1224.01210	0.16374	0.68590	19594.72563	876.04482	13715.23085	1221.97287	0.68199	19406.00000	875.00000	13513.00000
1230.20645	0.15710	0.69646	20120.20026	872.48020	14277.74228	1228.16324	0.69334	19956.00000	876.00000	14105.00000
1236.40081	0.15237	0.70409	20649.23727	886.34799	14801.22514	1234.35361	0.70179	20461.00000	874.00000	14620.00000
1242.59516	0.14876	0.70997	21186.14180	892.43754	15300.33534	1240.54398	0.70819	21027.00000	904.00000	15155.00000
1248.78952	0.14595	0.71458	21639.43707	853.74756	15706.82343	1246.73435	0.71315	21481.00000	857.00000	15565.00000
1254.98387	0.14366	0.71836	22186.10389	887.90098	16187.71476	1252.92472	0.71720	21995.00000	874.00000	16022.00000
1261.17823	0.14221	0.72076	22744.98332	890.64324	16642.38658	1259.11509	0.72019	22568.00000	900.00000	16505.00000
1267.37258	0.14152	0.72191	23243.71070	844.15789	17014.53693	1265.30546	0.72152	23078.00000	857.00000	16890.00000
1273.56694	0.14020	0.72411	23813.43146	859.99157	17480.74839	1271.49583	0.72312	23605.00000	844.00000	17303.00000
1279.76129	0.13792	0.72791	24453.54449	898.95555	18044.52581	1277.68620	0.72658	24247.00000	895.00000	17862.00000
1285.95565	0.13553	0.73193	25039.29282	882.87107	18563.58873	1283.87657	0.73058	24843.00000	888.00000	18389.00000
1292.15000	0.13321	0.73585	25633.20976	874.48479	19093.08741	1290.06694	0.73456	25432.00000	877.00000	18914.00000
1298.34435	0.13138	0.73896	26275.57944	875.36170	19645.15204	1296.25731	0.73808	26049.00000	873.00000	19455.00000
1304.53871	0.13042	0.74060	26910.28272	864.72671	20154.02641	1302.44769	0.74019	26712.00000	874.00000	19999.00000
1310.73306	0.13032	0.74076	27539.76334	865.28161	20624.74267	1308.63806	0.74091	27304.00000	854.00000	20451.00000
1316.92742	0.13127	0.73915	28270.79252	884.98210	21127.15018	1314.82843	0.73989	28032.00000	890.00000	20972.00000
1323.12177	0.13327	0.73575	28955.06915	860.68820	21531.21797	1321.01880	0.73712	28719.00000	862.00000	21396.00000
1329.31613	0.13667	0.73001	29633.32179	868.03484	21866.97841	1327.20917	0.73229	29411.00000	869.00000	21770.00000
1335.51048	0.14191	0.72126	30302.79696	861.31771	22096.22147	1333.39954	0.72458	30064.00000	861.00000	22021.00000
1341.70484	0.14913	0.70936	31040.63710	883.35260	22275.63860	1339.58991	0.71379	30788.00000	873.00000	22226.00000
1347.89919	0.15830	0.69454	31710.62252	886.82909	22295.48352	1345.78028	0.69988	31498.00000	894.00000	22313.00000
1354.09355	0.16846	0.67848	32368.46417	858.22619	22237.10580	1351.97065	0.68396	32123.00000	864.00000	22244.00000
1360.28790	0.17806	0.66365	33079.41609	863.88248	22243.86544	1358.16102	0.66848	32852.00000	860.00000	22246.00000
1366.48226	0.18670	0.65058	33719.60962	862.84716	22238.79597	1364.35139	0.65498	33491.00000	867.00000	22235.00000
1372.67661	0.19474	0.63864	34419.13569	848.00380	22287.85095	1370.54176	0.64257	34178.00000	851.00000	22266.00000
1378.87097	0.20161	0.62862	34997.78982	865.89108	22321.81394	1376.73213	0.63184	34829.00000	855.00000	22321.00000
1385.06532	0.20775	0.61980	35282.55609	871.96034	22199.54320	1382.92250	0.62286	35216.00000	879.00000	22266.00000
1391.25968	0.21392	0.61105	35454.56849	868.59113	22002.28263	1389.11287	0.61404	35383.00000	859.00000	22058.00000
1397.45403	0.22112	0.60100	35619.60134	886.37628	21761.27999	1395.30324	0.60492	35583.00000	891.00000	21877.00000
1403.64839	0.23258	0.58535	35834.55471	865.31191	21334.64727	1401.49361	0.59166	35714.00000	866.00000	21484.00000
1409.84274	0.25024	0.56204	36489.35769	873.82043	20890.81664	1407.68398	0.57100	36214.00000	874.00000	21053.00000
1416.03710	0.27334	0.53292	37454.71523	877.22955	20370.00749	1413.87435	0.54350	37098.00000	872.00000	20561.00000
1422.23145	0.29967	0.50157	38501.95566	886.60375	19753.76700	1420.06472	0.51260	38137.00000	888.00000	19982.00000
1428.42581	0.32767	0.47025	39622.23895	874.12429	19094.71293	1426.25509	0.48112	39208.00000	877.00000	19319.00000
1434.62016	0.35273	0.44388	40761.26708	872.53526	18578.77102	1432.44546	0.45195	40388.00000	873.00000	18732.00000
1440.81452	0.36724	0.42930	41685.67119	872.92918	18394.01504	1438.63583	0.43300	41375.00000	872.00000	18410.00000
1447.00887	0.37273	0.42391	42697.97010	892.09592	18613.78588	1444.82620	0.42529	42303.00000	882.00000	18498.00000
1453.20323	0.37622	0.42051	43743.69350	881.19502	18905.43719	1451.01657	0.42177	43420.00000	897.00000	18832.00000
1459.39758	0.38013	0.41675	44616.30730	861.83262	19096.31250	1457.20694	0.41805	44284.00000	854.00000	19010.00000
1465.59194	0.38357	0.41346	45681.51347	893.65188	19411.51353	1463.39731	0.41454	45294.00000	891.00000	19298.00000
1471.78629	0.38621	0.41096	46691.44736	880.41136	19706.73568	1469.58768	0.41174	46358.00000	883.00000	19607.00000
1477.98065	0.38807	0.40919	47539.84378	864.96700	19963.88829	1475.77805	0.40976	47244.00000	875.00000	19875.00000
1484.17500	0.38932	0.40802	48453.02745	858.97393	20278.43589	1481.96842	0.40836	48107.00000	852.00000	20149.00000
1490.36935	0.38995	0.40743	49314.35954	885.82004	20617.05069	1488.15879	0.40759	49049.00000	881.00000	20514.00000
1496.56371	0.38985	0.40752	50001.49019	880.23876	20897.99647	1494.34916	0.40736	49741.00000	883.00000	20786.00000
1502.75806	0.38872	0.40858	50705.77350	864.52184	21228.73731	1500.53953	0.40811	50474.00000	872.00000	21115.00000
1508.95242	0.38681	0.41038	51385.78695	891.73536	21613.66345	1506.72990	0.40966	51118.00000	869.00000	21454.00000
1515.14677	0.38446	0.41261	52107.85403	893.71978	22025.06246	1512.92027	0.41179	51872.00000	917.00000	21900.00000
1521.34113	0.38188	0.41507	52815.89525	851.69957	22420.45698	1519.11064	0.41414	52530.00000	844.00000	22249.00000
1527.53548	0.37928	0.41757	53548.61369	896.26537	22881.99200	1525.30101	0.41672	53323.00000	892.00000	22741.00000
1533.72984	0.37695	0.41981	54149.95370	878.59624	23242.47414	1531.49138	0.41899	53910.00000	882.00000	23100.00000
1539.92419	0.37479	0.42190	54832.12801	868.84378	23635.93393	1537.68175	0.42121	54600.00000	876.00000	23505.00000
1546.11855	0.37322	0.42343	55451.13851	864.00141	23977.89874	1543.87212	0.42293	55220.00000	859.00000	23850.00000
1552.31290	0.37220	0.42442	56042.33834	881.37311	24292.90245	1550.06249	0.42413	55845.00000	879.00000	24192.00000
1558.50726	0.37184	0.42478	56662.34212	881.97129	24576.08499	1556.25286	0.42472	56406.00000	880.00000	24463.00000
1564.70161	0.37212	0.42450	57241.63462	881.81730	24806.65493	1562.44323	0.42467	57084.00000	885.00000	24751.00000
1570.89597	0.37255	0.42408	57652.97230	868.16681	24949.52204	1568.63360	0.42418	57470.00000	872.00000	24880.00000
1577.09032	0.37244	0.42419	58206.47218	874.43948	25194.02189	1574.82397	0.42408	58018.00000	869.00000	25105.00000
1583.28468	0.37175	0.42486	58673.40818	887.42953	25438.42196	1581.01434	0.42454	58502.00000	885.00000	25346.00000
1589.47903	0.37017	0.42641	59041.87130	888.83630	25685.76337	1587.20471	0.42570	58934.00000	888.00000	25598.00000
1595.67339	0.36737	0.42917	59358.10218	876.53006	25975.22053	1593.39508	0.42803	59218.00000	885.00000	25853.00000
1601.86774	0.36355	0.43297	59778.17203	883.72242	26382.90796	1599.58545	0.43146	59632.00000	871.00000	26224.00000
1608.06210	0.35902	0.43750	60103.05486	896.34115	26799.35185	1605.77582	0.43577	59993.00000	904.00000	26653.00000
1614.25645	0.35405	0.44254	60403.71328	879.81794	27221.34620	1611.96619	0.44062	60288.00000	876.00000	27054.00000
1620.45081	0.34898	0.44773	60606.54759	887.56155	27625.42432	1618.15656	0.44584	60563.00000	893.00000	27496.00000
1626.64516	0.34402	0.45288	60733.55595	878.59339	27985.72290	1624.34693	0.45094	60663.00000	874.00000	27835.00000
1632.83952	0.33905	0.45809	60986.21919	889.52033	28419.12388	1630.53730	0.45619	60896.00000	892.00000	28265.00000
1639.03387	0.33442	0.46300	61048.69415	866.62659	28730.95021	1636.72767	0.46120	61067.00000	874.00000	28635.00000
1645.22823	0.33012	0.46761	60863.78586	869.32764	28923.36883	1642.91804	0.46594	60949.00000	864.00000	28860.00000
1651.42258	0.32627	0.47177	59805.79968	899.77194	28689.34003	1649.10841	0.47026	60411.00000	887.00000	28879.00000
1657.61694	0.32309	0.47523	57584.63778	905.33477	27841.10159	1655.29878	0.47405	58428.00000	911.00000	28177.00000
1663.81129	0.32058	0.47799	56481.05190	890.63733	27462.68253	1661.48915	0.47700	56625.00000	891.00000	27476.00000
1670.00565	0.31898	0.47976	55048.67016	902.23167	26879.55073	1667.67952	0.47931	56028.00000	899.00000	27323.00000
1676.20000	0.31885	0.47990	51378.45954	875.98122	25111.17570	1673.86989	0.48000	52735.00000	893.00000	25777.00000
0.00000	0.00000	0.00000	0.00000	0.00000	0.00000	1680.06026	0.47904	48849.00000	859.00000	23848.00000
0.00000	0.00000	0.00000	0.00000	0.00000	0.00000	1686.25063	0.47626	44181.00000	908.00000	21517.00000
0.00000	0.00000	0.00000	0.00000	0.00000	0.00000	1692.44100	0.47626	44181.00000	908.00000	21517.00000
