'File ÄÌ·Û_3_2016Ò»ÔÂ28_1046.xls
'Part ID ÄÌ·Û_3
'Scan Created 2016/1/28 10:46:39
'Instrument S1-00205
'Version 1.5.7
'Integration Time 10100 µs
'Number of Scans 50
'Units Absorbance
'Thermistor 44.84
Wavelength	Absorbance	Normalized	100%	dark	Raw 1	Native Wvl	Native Norm	Native 100%	Native dark	Native 1
908.10000	0.23668	0.57986	3514.15951	877.71219	2405.46117	906.26400	0.57011	3596.00000	879.00000	2428.00000
914.29435	0.21383	0.61119	3281.25113	863.65831	2341.53769	912.45437	0.60227	3339.00000	870.00000	2357.00000
920.48871	0.19369	0.64019	3227.40662	877.32414	2381.85102	918.64474	0.63153	3216.00000	863.00000	2349.00000
926.68306	0.17442	0.66924	3307.28228	905.48228	2512.75225	924.83511	0.66065	3291.00000	910.00000	2483.00000
932.87742	0.15545	0.69911	3382.42130	864.28145	2624.84450	931.02548	0.68985	3345.00000	872.00000	2578.00000
939.07177	0.13759	0.72847	3608.15965	881.02078	2867.66443	937.21585	0.72036	3528.00000	871.00000	2785.00000
945.26613	0.12454	0.75069	3846.64039	885.69520	3108.45753	943.40622	0.74473	3789.00000	894.00000	3050.00000
951.46048	0.11623	0.76519	4004.44998	860.87297	3266.23720	949.59659	0.76180	3954.00000	860.00000	3217.00000
957.65484	0.11209	0.77252	4209.47249	887.01493	3453.73922	955.78696	0.77069	4143.00000	881.00000	3395.00000
963.84919	0.10955	0.77706	4374.85740	871.56767	3593.80413	961.97733	0.77595	4341.00000	882.00000	3566.00000
970.04355	0.10937	0.77737	4520.56130	886.05989	3711.42169	968.16770	0.77799	4456.00000	866.00000	3659.00000
976.23790	0.11296	0.77097	4717.71427	911.39747	3845.90340	974.35807	0.77351	4679.00000	926.00000	3829.00000
982.43226	0.11693	0.76397	4843.76664	857.92770	3903.01788	980.54844	0.76539	4787.00000	857.00000	3865.00000
988.62661	0.11754	0.76288	5076.97721	894.34516	4085.18387	986.73881	0.76286	5011.00000	891.00000	4034.00000
994.82097	0.11736	0.76320	5297.39601	869.00992	4248.74711	992.92918	0.76318	5222.00000	877.00000	4193.00000
1001.01532	0.11822	0.76169	5554.06756	873.41459	4438.60196	999.11955	0.76246	5480.00000	866.00000	4384.00000
1007.20968	0.11921	0.75997	5827.05497	883.56657	4640.47421	1005.30992	0.76007	5731.00000	888.00000	4569.00000
1013.40403	0.11712	0.76362	6120.28754	870.80251	4879.38432	1011.50029	0.76183	6045.00000	868.00000	4812.00000
1019.59839	0.11356	0.76992	6348.68404	901.94795	5095.51239	1017.69066	0.76827	6270.00000	893.00000	5024.00000
1025.79274	0.11161	0.77338	6618.61076	896.05363	5321.70393	1023.88103	0.77249	6540.00000	905.00000	5258.00000
1031.98710	0.10969	0.77680	6878.79036	877.64868	5539.40421	1030.07140	0.77552	6792.00000	876.00000	5464.00000
1038.18145	0.10717	0.78133	7153.19229	875.20158	5780.35351	1036.26177	0.78000	7075.00000	884.00000	5713.00000
1044.37581	0.10502	0.78519	7435.03734	854.54502	6021.54552	1042.45214	0.78402	7334.00000	852.00000	5934.00000
1050.57016	0.10324	0.78843	7778.63216	881.04291	6319.26734	1048.64251	0.78756	7678.00000	876.00000	6233.00000
1056.76452	0.10159	0.79142	8066.37003	871.22278	6565.65600	1054.83288	0.79034	7979.00000	877.00000	6490.00000
1062.95887	0.09977	0.79475	8367.94643	870.25694	6828.99349	1061.02325	0.79387	8268.00000	865.00000	6742.00000
1069.15323	0.09849	0.79709	8674.59951	877.92605	7092.59411	1067.21362	0.79634	8586.00000	882.00000	7017.00000
1075.34758	0.09703	0.79977	8958.19691	861.24829	7336.97791	1073.40399	0.79890	8863.00000	862.00000	7254.00000
1081.54194	0.09563	0.80236	9269.61857	868.88623	7609.26149	1079.59436	0.80161	9175.00000	868.00000	7527.00000
1087.73629	0.09467	0.80413	9599.77547	889.96693	7893.79166	1085.78473	0.80367	9485.00000	877.00000	7795.00000
1093.93065	0.09397	0.80544	9958.85840	903.23915	8196.98709	1091.97510	0.80501	9855.00000	911.00000	8111.00000
1100.12500	0.09346	0.80638	10287.04131	864.70017	8462.69161	1098.16547	0.80621	10175.00000	871.00000	8372.00000
1106.31935	0.09343	0.80643	10673.09117	870.26271	8775.57612	1104.35584	0.80644	10550.00000	868.00000	8676.00000
1112.51371	0.09342	0.80646	11054.17109	867.39097	9082.66351	1110.54621	0.80644	10934.00000	870.00000	8986.00000
1118.70806	0.09387	0.80562	11440.58269	866.80701	9385.26338	1116.73658	0.80614	11315.00000	864.00000	9289.00000
1124.90242	0.09577	0.80210	11853.47185	879.92340	9681.80307	1122.92695	0.80354	11719.00000	877.00000	9589.00000
1131.09677	0.09972	0.79484	12279.20991	877.48685	9939.92036	1129.11732	0.79767	12144.00000	880.00000	9865.00000
1137.29113	0.10573	0.78392	12658.45812	855.49825	10108.21361	1135.30769	0.78762	12547.00000	865.00000	10066.00000
1143.48548	0.11275	0.77134	13049.18681	852.30684	10260.09191	1141.49806	0.77556	12906.00000	845.00000	10199.00000
1149.67984	0.12036	0.75794	13533.98158	886.77209	10472.82521	1147.68843	0.76222	13382.00000	879.00000	10409.00000
1155.87419	0.12919	0.74270	13997.40073	876.37382	10621.07999	1153.87880	0.74815	13845.00000	885.00000	10581.00000
1162.06855	0.13951	0.72525	14503.46887	861.13988	10755.23122	1160.06917	0.73061	14335.00000	860.00000	10705.00000
1168.26290	0.14808	0.71109	15009.58309	885.01032	10928.95275	1166.25954	0.71530	14853.00000	877.00000	10874.00000
1174.45726	0.15631	0.69774	15471.50866	888.01740	11063.32562	1172.44991	0.70236	15322.00000	892.00000	11027.00000
1180.65161	0.16535	0.68336	15938.18293	858.48109	11163.34998	1178.64028	0.68781	15786.00000	869.00000	11129.00000
1186.84597	0.17284	0.67168	16436.20435	853.30650	11320.01088	1184.83065	0.67514	16267.00000	848.00000	11258.00000
1193.04032	0.17803	0.66370	16954.92806	876.34677	11547.72553	1191.02102	0.66581	16791.00000	872.00000	11471.00000
1199.23468	0.18086	0.65939	17462.35109	876.98642	11813.18323	1197.21139	0.66053	17291.00000	877.00000	11719.00000
1205.42903	0.18194	0.65774	17986.83670	869.01927	12128.16974	1203.40176	0.65791	17820.00000	874.00000	12023.00000
1211.62339	0.18009	0.66056	18479.84056	863.23699	12499.96712	1209.59213	0.65899	18318.00000	861.00000	12365.00000
1217.81774	0.17457	0.66901	19014.17361	874.89956	13010.38528	1215.78250	0.66568	18829.00000	873.00000	12826.00000
1224.01210	0.16706	0.68068	19594.72563	876.04482	13617.44080	1221.97287	0.67676	19406.00000	875.00000	13416.00000
1230.20645	0.16038	0.69122	20120.20026	872.48020	14176.91462	1228.16324	0.68810	19956.00000	876.00000	14005.00000
1236.40081	0.15566	0.69878	20649.23727	886.34799	14696.34690	1234.35361	0.69653	20461.00000	874.00000	14517.00000
1242.59516	0.15196	0.70476	21186.14180	892.43754	15194.73385	1240.54398	0.70288	21027.00000	904.00000	15048.00000
1248.78952	0.14902	0.70954	21639.43707	853.74756	15602.01348	1246.73435	0.70816	21481.00000	857.00000	15462.00000
1254.98387	0.14686	0.71308	22186.10389	887.90098	16075.25761	1252.92472	0.71195	21995.00000	874.00000	15911.00000
1261.17823	0.14535	0.71557	22744.98332	890.64324	16528.82083	1259.11509	0.71497	22568.00000	900.00000	16392.00000
1267.37258	0.14462	0.71676	23243.71070	844.15789	16899.29601	1265.30546	0.71635	23078.00000	857.00000	16775.00000
1273.56694	0.14327	0.71899	23813.43146	859.99157	17363.41911	1271.49583	0.71803	23605.00000	844.00000	17187.00000
1279.76129	0.14104	0.72270	24453.54449	898.95555	17921.94074	1277.68620	0.72139	24247.00000	895.00000	17741.00000
1285.95565	0.13858	0.72681	25039.29282	882.87107	18439.96701	1283.87657	0.72540	24843.00000	888.00000	18265.00000
1292.15000	0.13618	0.73084	25633.20976	874.48479	18969.15687	1290.06694	0.72955	25432.00000	877.00000	18791.00000
1298.34435	0.13435	0.73392	26275.57944	875.36170	19516.99455	1296.25731	0.73304	26049.00000	873.00000	19328.00000
1304.53871	0.13338	0.73556	26910.28272	864.72671	20022.77120	1302.44769	0.73516	26712.00000	874.00000	19869.00000
1310.73306	0.13330	0.73570	27539.76334	865.28161	20489.56206	1308.63806	0.73584	27304.00000	854.00000	20317.00000
1316.92742	0.13424	0.73412	28270.79252	884.98210	20989.32663	1314.82843	0.73484	28032.00000	890.00000	20835.00000
1323.12177	0.13626	0.73071	28955.06915	860.68820	21389.51005	1321.01880	0.73210	28719.00000	862.00000	21256.00000
1329.31613	0.13970	0.72494	29633.32179	868.03484	21721.02364	1327.20917	0.72721	29411.00000	869.00000	21625.00000
1335.51048	0.14489	0.71632	30302.79696	861.31771	21950.93815	1333.39954	0.71958	30064.00000	861.00000	21875.00000
1341.70484	0.15212	0.70450	31040.63710	883.35260	22129.06473	1339.58991	0.70894	30788.00000	873.00000	22081.00000
1347.89919	0.16141	0.68959	31710.62252	886.82909	22142.88141	1345.78028	0.69494	31498.00000	894.00000	22162.00000
1354.09355	0.17161	0.67359	32368.46417	858.22619	22082.86415	1351.97065	0.67904	32123.00000	864.00000	22090.00000
1360.28790	0.18124	0.65880	33079.41609	863.88248	22087.86337	1358.16102	0.66363	32852.00000	860.00000	22091.00000
1366.48226	0.18993	0.64576	33719.60962	862.84716	22080.41758	1364.35139	0.65013	33491.00000	867.00000	22077.00000
1372.67661	0.19795	0.63395	34419.13569	848.00380	22130.25631	1370.54176	0.63783	34178.00000	851.00000	22108.00000
1378.87097	0.20480	0.62402	34997.78982	865.89108	22164.83920	1376.73213	0.62721	34829.00000	855.00000	22164.00000
1385.06532	0.21101	0.61517	35282.55609	871.96034	22040.27585	1382.92250	0.61825	35216.00000	879.00000	22108.00000
1391.25968	0.21729	0.60634	35454.56849	868.59113	21839.26217	1389.11287	0.60934	35383.00000	859.00000	21896.00000
1397.45403	0.22455	0.59627	35619.60134	886.37628	21597.06904	1395.30324	0.60020	35583.00000	891.00000	21713.00000
1403.64839	0.23612	0.58060	35834.55471	865.31191	21168.66244	1401.49361	0.58692	35714.00000	866.00000	21319.00000
1409.84274	0.25386	0.55737	36489.35769	873.82043	20724.68407	1407.68398	0.56627	36214.00000	874.00000	20886.00000
1416.03710	0.27706	0.52837	37454.71523	877.22955	20203.51355	1413.87435	0.53895	37098.00000	872.00000	20396.00000
1422.23145	0.30360	0.49705	38501.95566	886.60375	19583.72092	1420.06472	0.50804	38137.00000	888.00000	19812.00000
1428.42581	0.33173	0.46587	39622.23895	874.12429	18924.96902	1426.25509	0.47672	39208.00000	877.00000	19150.00000
1434.62016	0.35698	0.43956	40761.26708	872.53526	18406.51421	1432.44546	0.44760	40388.00000	873.00000	18560.00000
1440.81452	0.37153	0.42507	41685.67119	872.92918	18221.47568	1438.63583	0.42876	41375.00000	872.00000	18238.00000
1447.00887	0.37709	0.41967	42697.97010	892.09592	18436.91398	1444.82620	0.42107	42303.00000	882.00000	18323.00000
1453.20323	0.38066	0.41623	43743.69350	881.19502	18721.95396	1451.01657	0.41752	43420.00000	897.00000	18651.00000
1459.39758	0.38462	0.41245	44616.30730	861.83262	18908.57997	1457.20694	0.41375	44284.00000	854.00000	18823.00000
1465.59194	0.38807	0.40920	45681.51347	893.65188	19220.62681	1463.39731	0.41029	45294.00000	891.00000	19109.00000
1471.78629	0.39070	0.40672	46691.44736	880.41136	19512.79711	1469.58768	0.40748	46358.00000	883.00000	19413.00000
1477.98065	0.39256	0.40498	47539.84378	864.96700	19767.50985	1475.77805	0.40557	47244.00000	875.00000	19681.00000
1484.17500	0.39389	0.40375	48453.02745	858.97393	20074.89329	1481.96842	0.40408	48107.00000	852.00000	19947.00000
1490.36935	0.39452	0.40316	49314.35954	885.82004	20410.47307	1488.15879	0.40334	49049.00000	881.00000	20309.00000
1496.56371	0.39441	0.40327	50001.49019	880.23876	20689.24412	1494.34916	0.40309	49741.00000	883.00000	20577.00000
1502.75806	0.39321	0.40438	50705.77350	864.52184	21019.52070	1500.53953	0.40392	50474.00000	872.00000	20907.00000
1508.95242	0.39133	0.40613	51385.78695	891.73536	21399.03438	1506.72990	0.40542	51118.00000	869.00000	21241.00000
1515.14677	0.38893	0.40839	52107.85403	893.71978	21808.95518	1512.92027	0.40756	51872.00000	917.00000	21684.00000
1521.34113	0.38631	0.41086	52815.89525	851.69957	22201.64796	1519.11064	0.40994	52530.00000	844.00000	22032.00000
1527.53548	0.38374	0.41330	53548.61369	896.26537	22657.14608	1525.30101	0.41247	53323.00000	892.00000	22518.00000
1533.72984	0.38140	0.41553	54149.95370	878.59624	23014.57512	1531.49138	0.41471	53910.00000	882.00000	22873.00000
1539.92419	0.37924	0.41760	54832.12801	868.84378	23404.03188	1537.68175	0.41693	54600.00000	876.00000	23275.00000
1546.11855	0.37767	0.41911	55451.13851	864.00141	23742.21093	1543.87212	0.41861	55220.00000	859.00000	23615.00000
1552.31290	0.37661	0.42013	56042.33834	881.37311	24056.36740	1550.06249	0.41984	55845.00000	879.00000	23956.00000
1558.50726	0.37624	0.42049	56662.34212	881.97129	24337.24374	1556.25286	0.42043	56406.00000	880.00000	24225.00000
1564.70161	0.37656	0.42019	57241.63462	881.81730	24563.59505	1562.44323	0.42038	57084.00000	885.00000	24510.00000
1570.89597	0.37706	0.41970	57652.97230	868.16681	24700.79644	1568.63360	0.41982	57470.00000	872.00000	24633.00000
1577.09032	0.37697	0.41979	58206.47218	874.43948	24941.82370	1574.82397	0.41969	58018.00000	869.00000	24854.00000
1583.28468	0.37624	0.42050	58673.40818	887.42953	25186.30659	1581.01434	0.42015	58502.00000	885.00000	25093.00000
1589.47903	0.37457	0.42212	59041.87130	888.83630	25436.09861	1587.20471	0.42139	58934.00000	888.00000	25348.00000
1595.67339	0.37176	0.42485	59358.10218	876.53006	25722.57412	1593.39508	0.42372	59218.00000	885.00000	25602.00000
1601.86774	0.36796	0.42859	59778.17203	883.72242	26125.20493	1599.58545	0.42710	59632.00000	871.00000	25968.00000
1608.06210	0.36338	0.43314	60103.05486	896.34115	26540.88231	1605.77582	0.43138	59993.00000	904.00000	26394.00000
1614.25645	0.35835	0.43818	60403.71328	879.81794	26961.89411	1611.96619	0.43628	60288.00000	876.00000	26796.00000
1620.45081	0.35325	0.44335	60606.54759	887.56155	27363.87682	1618.15656	0.44144	60563.00000	893.00000	27234.00000
1626.64516	0.34821	0.44852	60733.55595	878.59339	27725.00375	1624.34693	0.44659	60663.00000	874.00000	27575.00000
1632.83952	0.34327	0.45366	60986.21919	889.52033	28153.14156	1630.53730	0.45179	60896.00000	892.00000	28001.00000
1639.03387	0.33861	0.45855	61048.69415	866.62659	28462.98485	1636.72767	0.45675	61067.00000	874.00000	28367.00000
1645.22823	0.33423	0.46321	60863.78586	869.32764	28659.37904	1642.91804	0.46151	60949.00000	864.00000	28594.00000
1651.42258	0.33032	0.46739	59805.79968	899.77194	28431.73977	1649.10841	0.46590	60411.00000	887.00000	28619.00000
1657.61694	0.32714	0.47083	57584.63778	905.33477	27591.38820	1655.29878	0.46965	58428.00000	911.00000	27924.00000
1663.81129	0.32467	0.47351	56481.05190	890.63733	27213.83909	1661.48915	0.47257	56625.00000	891.00000	27229.00000
1670.00565	0.32313	0.47519	55048.67016	902.23167	26632.14888	1667.67952	0.47476	56028.00000	899.00000	27072.00000
1676.20000	0.32302	0.47532	51378.45954	875.98122	24879.68876	1673.86989	0.47543	52735.00000	893.00000	25540.00000
0.00000	0.00000	0.00000	0.00000	0.00000	0.00000	1680.06026	0.47443	48849.00000	859.00000	23627.00000
0.00000	0.00000	0.00000	0.00000	0.00000	0.00000	1686.25063	0.47168	44181.00000	908.00000	21319.00000
0.00000	0.00000	0.00000	0.00000	0.00000	0.00000	1692.44100	0.47168	44181.00000	908.00000	21319.00000
