'File ÄÌ·Û_2_2016Ò»ÔÂ28_1046.xls
'Part ID ÄÌ·Û_2
'Scan Created 2016/1/28 10:46:34
'Instrument S1-00205
'Version 1.5.7
'Integration Time 10100 µs
'Number of Scans 50
'Units Absorbance
'Thermistor 44.84
Wavelength	Absorbance	Normalized	100%	dark	Raw 1	Native Wvl	Native Norm	Native 100%	Native dark	Native 1
908.10000	0.23101	0.58748	3514.15951	877.71219	2425.42982	906.26400	0.57711	3596.00000	879.00000	2447.00000
914.29435	0.20850	0.61873	3281.25113	863.65831	2359.84185	912.45437	0.61037	3339.00000	870.00000	2377.00000
920.48871	0.18968	0.64613	3227.40662	877.32414	2395.77141	918.64474	0.63748	3216.00000	863.00000	2363.00000
926.68306	0.16945	0.67695	3307.28228	905.48228	2531.27748	924.83511	0.66779	3291.00000	910.00000	2500.00000
932.87742	0.15020	0.70762	3382.42130	864.28145	2646.25247	931.02548	0.69834	3345.00000	872.00000	2599.00000
939.07177	0.13266	0.73678	3608.15965	881.02078	2890.32186	937.21585	0.72864	3528.00000	871.00000	2807.00000
945.26613	0.11948	0.75949	3846.64039	885.69520	3134.50455	943.40622	0.75337	3789.00000	894.00000	3075.00000
951.46048	0.11112	0.77425	4004.44998	860.87297	3294.74468	949.59659	0.77085	3954.00000	860.00000	3245.00000
957.65484	0.10720	0.78126	4209.47249	887.01493	3482.75655	955.78696	0.77958	4143.00000	881.00000	3424.00000
963.84919	0.10493	0.78537	4374.85740	871.56767	3622.91385	961.97733	0.78433	4341.00000	882.00000	3595.00000
970.04355	0.10467	0.78583	4520.56130	886.05989	3742.17644	968.16770	0.78635	4456.00000	866.00000	3689.00000
976.23790	0.10796	0.77991	4717.71427	911.39747	3879.90799	974.35807	0.78231	4679.00000	926.00000	3862.00000
982.43226	0.11173	0.77316	4843.76664	857.92770	3939.65412	980.54844	0.77455	4787.00000	857.00000	3901.00000
988.62661	0.11260	0.77162	5076.97721	894.34516	4121.72722	986.73881	0.77184	5011.00000	891.00000	4071.00000
994.82097	0.11266	0.77151	5297.39601	869.00992	4285.57932	992.92918	0.77146	5222.00000	877.00000	4229.00000
1001.01532	0.11325	0.77047	5554.06756	873.41459	4479.68430	999.11955	0.77113	5480.00000	866.00000	4424.00000
1007.20968	0.11439	0.76843	5827.05497	883.56657	4682.28821	1005.30992	0.76874	5731.00000	888.00000	4611.00000
1013.40403	0.11224	0.77225	6120.28754	870.80251	4924.73162	1011.50029	0.77014	6045.00000	868.00000	4855.00000
1019.59839	0.10846	0.77900	6348.68404	901.94795	5144.89541	1017.69066	0.77757	6270.00000	893.00000	5074.00000
1025.79274	0.10709	0.78146	6618.61076	896.05363	5368.01654	1023.88103	0.78066	6540.00000	905.00000	5304.00000
1031.98710	0.10492	0.78538	6878.79036	877.64868	5590.82946	1030.07140	0.78398	6792.00000	876.00000	5514.00000
1038.18145	0.10229	0.79015	7153.19229	875.20158	5835.76797	1036.26177	0.78873	7075.00000	884.00000	5767.00000
1044.37581	0.10015	0.79405	7435.03734	854.54502	6079.78312	1042.45214	0.79297	7334.00000	852.00000	5992.00000
1050.57016	0.09860	0.79690	7778.63216	881.04291	6377.68113	1048.64251	0.79609	7678.00000	876.00000	6291.00000
1056.76452	0.09683	0.80014	8066.37003	871.22278	6628.41211	1054.83288	0.79893	7979.00000	877.00000	6551.00000
1062.95887	0.09496	0.80361	8367.94643	870.25694	6895.41454	1061.02325	0.80278	8268.00000	865.00000	6808.00000
1069.15323	0.09391	0.80555	8674.59951	877.92605	7158.55738	1067.21362	0.80491	8586.00000	882.00000	7083.00000
1075.34758	0.09249	0.80817	8958.19691	861.24829	7405.00200	1073.40399	0.80727	8863.00000	862.00000	7321.00000
1081.54194	0.09099	0.81098	9269.61857	868.88623	7681.70839	1079.59436	0.81016	9175.00000	868.00000	7598.00000
1087.73629	0.09000	0.81282	9599.77547	889.96693	7969.46713	1085.78473	0.81238	9485.00000	877.00000	7870.00000
1093.93065	0.08935	0.81405	9958.85840	903.23915	8275.04150	1091.97510	0.81362	9855.00000	911.00000	8188.00000
1100.12500	0.08878	0.81512	10287.04131	864.70017	8545.02189	1098.16547	0.81492	10175.00000	871.00000	8453.00000
1106.31935	0.08872	0.81522	10673.09117	870.26271	8861.76578	1104.35584	0.81522	10550.00000	868.00000	8761.00000
1112.51371	0.08878	0.81513	11054.17109	867.39097	9170.89944	1110.54621	0.81518	10934.00000	870.00000	9074.00000
1118.70806	0.08929	0.81415	11440.58269	866.80701	9475.49906	1116.73658	0.81466	11315.00000	864.00000	9378.00000
1124.90242	0.09119	0.81060	11853.47185	879.92340	9775.12045	1122.92695	0.81212	11719.00000	877.00000	9682.00000
1131.09677	0.09516	0.80322	12279.20991	877.48685	10035.54652	1129.11732	0.80602	12144.00000	880.00000	9959.00000
1137.29113	0.10101	0.79249	12658.45812	855.49825	10209.34749	1135.30769	0.79618	12547.00000	865.00000	10166.00000
1143.48548	0.10805	0.77974	13049.18681	852.30684	10362.51662	1141.49806	0.78401	12906.00000	845.00000	10301.00000
1149.67984	0.11563	0.76625	13533.98158	886.77209	10577.87883	1147.68843	0.77054	13382.00000	879.00000	10513.00000
1155.87419	0.12443	0.75088	13997.40073	876.37382	10728.50973	1153.87880	0.75640	13845.00000	885.00000	10688.00000
1162.06855	0.13467	0.73337	14503.46887	861.13988	10866.15165	1160.06917	0.73870	14335.00000	860.00000	10814.00000
1168.26290	0.14311	0.71927	15009.58309	885.01032	11044.54107	1166.25954	0.72353	14853.00000	877.00000	10989.00000
1174.45726	0.15133	0.70577	15471.50866	888.01740	11180.54686	1172.44991	0.71040	15322.00000	892.00000	11143.00000
1180.65161	0.16032	0.69132	15938.18293	858.48109	11283.44757	1178.64028	0.69585	15786.00000	869.00000	11249.00000
1186.84597	0.16783	0.67947	16436.20435	853.30650	11441.34058	1184.83065	0.68292	16267.00000	848.00000	11378.00000
1193.04032	0.17294	0.67152	16954.92806	876.34677	11673.50768	1191.02102	0.67366	16791.00000	872.00000	11596.00000
1199.23468	0.17578	0.66715	17462.35109	876.98642	11941.86098	1197.21139	0.66827	17291.00000	877.00000	11846.00000
1205.42903	0.17679	0.66560	17986.83670	869.01927	12262.59470	1203.40176	0.66576	17820.00000	874.00000	12156.00000
1211.62339	0.17494	0.66844	18479.84056	863.23699	12638.91134	1209.59213	0.66684	18318.00000	861.00000	12502.00000
1217.81774	0.16944	0.67696	19014.17361	874.89956	13154.46053	1215.78250	0.67365	18829.00000	873.00000	12969.00000
1224.01210	0.16213	0.68845	19594.72563	876.04482	13762.96388	1221.97287	0.68458	19406.00000	875.00000	13561.00000
1230.20645	0.15551	0.69903	20120.20026	872.48020	14327.12440	1228.16324	0.69586	19956.00000	876.00000	14153.00000
1236.40081	0.15076	0.70671	20649.23727	886.34799	14852.94343	1234.35361	0.70445	20461.00000	874.00000	14672.00000
1242.59516	0.14711	0.71267	21186.14180	892.43754	15355.21000	1240.54398	0.71078	21027.00000	904.00000	15207.00000
1248.78952	0.14417	0.71751	21639.43707	853.74756	15767.71589	1246.73435	0.71611	21481.00000	857.00000	15626.00000
1254.98387	0.14208	0.72098	22186.10389	887.90098	16243.56563	1252.92472	0.71990	21995.00000	874.00000	16079.00000
1261.17823	0.14058	0.72347	22744.98332	890.64324	16701.54431	1259.11509	0.72282	22568.00000	900.00000	16562.00000
1267.37258	0.13977	0.72483	23243.71070	844.15789	17079.94538	1265.30546	0.72440	23078.00000	857.00000	16954.00000
1273.56694	0.13849	0.72697	23813.43146	859.99157	17546.40644	1271.49583	0.72602	23605.00000	844.00000	17369.00000
1279.76129	0.13622	0.73078	24453.54449	898.95555	18112.08490	1277.68620	0.72940	24247.00000	895.00000	17928.00000
1285.95565	0.13378	0.73489	25039.29282	882.87107	18635.06989	1283.87657	0.73354	24843.00000	888.00000	18460.00000
1292.15000	0.13147	0.73881	25633.20976	874.48479	19166.56037	1290.06694	0.73749	25432.00000	877.00000	18986.00000
1298.34435	0.12964	0.74193	26275.57944	875.36170	19720.46194	1296.25731	0.74110	26049.00000	873.00000	19531.00000
1304.53871	0.12877	0.74342	26910.28272	864.72671	20227.43496	1302.44769	0.74301	26712.00000	874.00000	20072.00000
1310.73306	0.12864	0.74364	27539.76334	865.28161	20701.54737	1308.63806	0.74378	27304.00000	854.00000	20527.00000
1316.92742	0.12962	0.74195	28270.79252	884.98210	21203.93327	1314.82843	0.74272	28032.00000	890.00000	21049.00000
1323.12177	0.13163	0.73853	28955.06915	860.68820	21609.11029	1321.01880	0.73989	28719.00000	862.00000	21473.00000
1329.31613	0.13501	0.73281	29633.32179	868.03484	21947.52722	1327.20917	0.73509	29411.00000	869.00000	21850.00000
1335.51048	0.14025	0.72402	30302.79696	861.31771	22177.64040	1333.39954	0.72736	30064.00000	861.00000	22102.00000
1341.70484	0.14743	0.71215	31040.63710	883.35260	22359.83362	1339.58991	0.71656	30788.00000	873.00000	22309.00000
1347.89919	0.15656	0.69734	31710.62252	886.82909	22381.59865	1345.78028	0.70269	31498.00000	894.00000	22399.00000
1354.09355	0.16671	0.68123	32368.46417	858.22619	22323.67606	1351.97065	0.68671	32123.00000	864.00000	22330.00000
1360.28790	0.17627	0.66639	33079.41609	863.88248	22332.11195	1358.16102	0.67123	32852.00000	860.00000	22334.00000
1366.48226	0.18486	0.65334	33719.60962	862.84716	22329.18228	1364.35139	0.65771	33491.00000	867.00000	22324.00000
1372.67661	0.19281	0.64149	34419.13569	848.00380	22383.39362	1370.54176	0.64539	34178.00000	851.00000	22360.00000
1378.87097	0.19971	0.63138	34997.78982	865.89108	22416.21657	1376.73213	0.63466	34829.00000	855.00000	22417.00000
1385.06532	0.20596	0.62236	35282.55609	871.96034	22287.74481	1382.92250	0.62548	35216.00000	879.00000	22356.00000
1391.25968	0.21223	0.61344	35454.56849	868.59113	22084.88462	1389.11287	0.61650	35383.00000	859.00000	22143.00000
1397.45403	0.21954	0.60320	35619.60134	886.37628	21837.67313	1395.30324	0.60717	35583.00000	891.00000	21955.00000
1403.64839	0.23105	0.58742	35834.55471	865.31191	21406.92720	1401.49361	0.59378	35714.00000	866.00000	21558.00000
1409.84274	0.24876	0.56394	36489.35769	873.82043	20958.75401	1407.68398	0.57295	36214.00000	874.00000	21122.00000
1416.03710	0.27180	0.53481	37454.71523	877.22955	20439.20886	1413.87435	0.54538	37098.00000	872.00000	20629.00000
1422.23145	0.29799	0.50352	38501.95566	886.60375	19826.91797	1420.06472	0.51454	38137.00000	888.00000	20054.00000
1428.42581	0.32562	0.47248	39622.23895	874.12429	19181.08816	1426.25509	0.48319	39208.00000	877.00000	19398.00000
1434.62016	0.35017	0.44651	40761.26708	872.53526	18683.65206	1432.44546	0.45451	40388.00000	873.00000	18833.00000
1440.81452	0.36481	0.43170	41685.67119	872.92918	18492.02174	1438.63583	0.43555	41375.00000	872.00000	18513.00000
1447.00887	0.37077	0.42582	42697.97010	892.09592	18693.83788	1444.82620	0.42737	42303.00000	882.00000	18584.00000
1453.20323	0.37467	0.42201	43743.69350	881.19502	18969.77741	1451.01657	0.42342	43420.00000	897.00000	18902.00000
1459.39758	0.37878	0.41804	44616.30730	861.83262	19152.87567	1457.20694	0.41936	44284.00000	854.00000	19067.00000
1465.59194	0.38211	0.41485	45681.51347	893.65188	19473.70851	1463.39731	0.41590	45294.00000	891.00000	19358.00000
1471.78629	0.38469	0.41239	46691.44736	880.41136	19772.47683	1469.58768	0.41317	46358.00000	883.00000	19672.00000
1477.98065	0.38646	0.41071	47539.84378	864.96700	20034.85682	1475.77805	0.41122	47244.00000	875.00000	19943.00000
1484.17500	0.38755	0.40968	48453.02745	858.97393	20357.36925	1481.96842	0.40999	48107.00000	852.00000	20226.00000
1490.36935	0.38819	0.40908	49314.35954	885.82004	20697.06900	1488.15879	0.40926	49049.00000	881.00000	20594.00000
1496.56371	0.38806	0.40920	50001.49019	880.23876	20980.87605	1494.34916	0.40902	49741.00000	883.00000	20867.00000
1502.75806	0.38678	0.41041	50705.77350	864.52184	21319.82058	1500.53953	0.40988	50474.00000	872.00000	21203.00000
1508.95242	0.38481	0.41228	51385.78695	891.73536	21709.22280	1506.72990	0.41155	51118.00000	869.00000	21549.00000
1515.14677	0.38246	0.41451	52107.85403	893.71978	22122.49911	1512.92027	0.41368	51872.00000	917.00000	21996.00000
1521.34113	0.37982	0.41704	52815.89525	851.69957	22522.90018	1519.11064	0.41609	52530.00000	844.00000	22350.00000
1527.53548	0.37721	0.41955	53548.61369	896.26537	22986.64887	1525.30101	0.41870	53323.00000	892.00000	22845.00000
1533.72984	0.37492	0.42177	54149.95370	878.59624	23346.99730	1531.49138	0.42097	53910.00000	882.00000	23205.00000
1539.92419	0.37275	0.42389	54832.12801	868.84378	23743.21181	1537.68175	0.42316	54600.00000	876.00000	23610.00000
1546.11855	0.37115	0.42546	55451.13851	864.00141	24088.38433	1543.87212	0.42497	55220.00000	859.00000	23961.00000
1552.31290	0.37025	0.42634	56042.33834	881.37311	24398.52376	1550.06249	0.42608	55845.00000	879.00000	24299.00000
1558.50726	0.36987	0.42671	56662.34212	881.97129	24684.00119	1556.25286	0.42663	56406.00000	880.00000	24569.00000
1564.70161	0.37011	0.42647	57241.63462	881.81730	24917.54699	1562.44323	0.42664	57084.00000	885.00000	24862.00000
1570.89597	0.37055	0.42604	57652.97230	868.16681	25060.55266	1568.63360	0.42613	57470.00000	872.00000	24990.00000
1577.09032	0.37039	0.42619	58206.47218	874.43948	25308.96059	1574.82397	0.42608	58018.00000	869.00000	25219.00000
1583.28468	0.36969	0.42689	58673.40818	887.42953	25555.61836	1581.01434	0.42656	58502.00000	885.00000	25462.00000
1589.47903	0.36805	0.42850	59041.87130	888.83630	25807.30097	1587.20471	0.42776	58934.00000	888.00000	25718.00000
1595.67339	0.36525	0.43127	59358.10218	876.53006	26097.98217	1593.39508	0.43013	59218.00000	885.00000	25976.00000
1601.86774	0.36151	0.43500	59778.17203	883.72242	26502.59087	1599.58545	0.43352	59632.00000	871.00000	26345.00000
1608.06210	0.35705	0.43949	60103.05486	896.34115	26917.12207	1605.77582	0.43776	59993.00000	904.00000	26771.00000
1614.25645	0.35211	0.44452	60403.71328	879.81794	27339.28644	1611.96619	0.44260	60288.00000	876.00000	27172.00000
1620.45081	0.34711	0.44967	60606.54759	887.56155	27741.31983	1618.15656	0.44780	60563.00000	893.00000	27613.00000
1626.64516	0.34220	0.45477	60733.55595	878.59339	28099.08128	1624.34693	0.45284	60663.00000	874.00000	27949.00000
1632.83952	0.33732	0.45992	60986.21919	889.52033	28529.43350	1630.53730	0.45805	60896.00000	892.00000	28377.00000
1639.03387	0.33277	0.46476	61048.69415	866.62659	28836.60641	1636.72767	0.46298	61067.00000	874.00000	28742.00000
1645.22823	0.32849	0.46936	60863.78586	869.32764	29028.81253	1642.91804	0.46769	60949.00000	864.00000	28965.00000
1651.42258	0.32467	0.47351	59805.79968	899.77194	28792.03449	1649.10841	0.47203	60411.00000	887.00000	28984.00000
1657.61694	0.32154	0.47694	57584.63778	905.33477	27937.66694	1655.29878	0.47575	58428.00000	911.00000	28275.00000
1663.81129	0.31906	0.47966	56481.05190	890.63733	27555.75585	1661.48915	0.47870	56625.00000	891.00000	27571.00000
1670.00565	0.31757	0.48131	55048.67016	902.23167	26963.74460	1667.67952	0.48091	56028.00000	899.00000	27411.00000
1676.20000	0.31755	0.48133	51378.45954	875.98122	25183.44315	1673.86989	0.48148	52735.00000	893.00000	25854.00000
0.00000	0.00000	0.00000	0.00000	0.00000	0.00000	1680.06026	0.48037	48849.00000	859.00000	23912.00000
0.00000	0.00000	0.00000	0.00000	0.00000	0.00000	1686.25063	0.47748	44181.00000	908.00000	21570.00000
0.00000	0.00000	0.00000	0.00000	0.00000	0.00000	1692.44100	0.47748	44181.00000	908.00000	21570.00000
