'File ÄÌ·Û_5_2016Ò»ÔÂ28_1046.xls
'Part ID ÄÌ·Û_5
'Scan Created 2016/1/28 10:46:48
'Instrument S1-00205
'Version 1.5.7
'Integration Time 10100 µs
'Number of Scans 50
'Units Absorbance
'Thermistor 44.52
Wavelength	Absorbance	Normalized	100%	dark	Raw 1	Native Wvl	Native Norm	Native 100%	Native dark	Native 1
908.10000	0.23078	0.58779	3514.15951	877.71219	2426.44184	906.26400	0.57858	3596.00000	879.00000	2451.00000
914.29435	0.20914	0.61781	3281.25113	863.65831	2357.53111	912.45437	0.60915	3339.00000	870.00000	2374.00000
920.48871	0.18878	0.64747	3227.40662	877.32414	2398.98718	918.64474	0.63833	3216.00000	863.00000	2365.00000
926.68306	0.16898	0.67768	3307.28228	905.48228	2532.98966	924.83511	0.66905	3291.00000	910.00000	2503.00000
932.87742	0.15041	0.70728	3382.42130	864.28145	2645.45672	931.02548	0.69794	3345.00000	872.00000	2598.00000
939.07177	0.13243	0.73718	3608.15965	881.02078	2891.37038	937.21585	0.72902	3528.00000	871.00000	2808.00000
945.26613	0.11953	0.75940	3846.64039	885.69520	3134.27590	943.40622	0.75337	3789.00000	894.00000	3075.00000
951.46048	0.11147	0.77363	4004.44998	860.87297	3292.75187	949.59659	0.77052	3954.00000	860.00000	3244.00000
957.65484	0.10784	0.78012	4209.47249	887.01493	3478.99197	955.78696	0.77836	4143.00000	881.00000	3420.00000
963.84919	0.10520	0.78488	4374.85740	871.56767	3621.20821	961.97733	0.78375	4341.00000	882.00000	3593.00000
970.04355	0.10533	0.78464	4520.56130	886.05989	3737.84355	968.16770	0.78552	4456.00000	866.00000	3686.00000
976.23790	0.10900	0.77803	4717.71427	911.39747	3872.79638	974.35807	0.78044	4679.00000	926.00000	3855.00000
982.43226	0.11254	0.77172	4843.76664	857.92770	3933.91898	980.54844	0.77303	4787.00000	857.00000	3895.00000
988.62661	0.11345	0.77011	5076.97721	894.34516	4115.41337	986.73881	0.77039	5011.00000	891.00000	4065.00000
994.82097	0.11357	0.76989	5297.39601	869.00992	4278.43230	992.92918	0.76985	5222.00000	877.00000	4222.00000
1001.01532	0.11406	0.76903	5554.06756	873.41459	4472.95096	999.11955	0.76961	5480.00000	866.00000	4417.00000
1007.20968	0.11506	0.76726	5827.05497	883.56657	4676.48283	1005.30992	0.76750	5731.00000	888.00000	4605.00000
1013.40403	0.11317	0.77061	6120.28754	870.80251	4916.08807	1011.50029	0.76879	6045.00000	868.00000	4848.00000
1019.59839	0.10946	0.77721	6348.68404	901.94795	5135.19283	1017.69066	0.77553	6270.00000	893.00000	5063.00000
1025.79274	0.10751	0.78071	6618.61076	896.05363	5363.67497	1023.88103	0.77977	6540.00000	905.00000	5299.00000
1031.98710	0.10558	0.78419	6878.79036	877.64868	5583.66871	1030.07140	0.78296	6792.00000	876.00000	5508.00000
1038.18145	0.10309	0.78869	7153.19229	875.20158	5826.61244	1036.26177	0.78727	7075.00000	884.00000	5758.00000
1044.37581	0.10092	0.79264	7435.03734	854.54502	6070.52279	1042.45214	0.79158	7334.00000	852.00000	5983.00000
1050.57016	0.09939	0.79545	7778.63216	881.04291	6367.71626	1048.64251	0.79462	7678.00000	876.00000	6281.00000
1056.76452	0.09763	0.79867	8066.37003	871.22278	6617.79724	1054.83288	0.79752	7979.00000	877.00000	6541.00000
1062.95887	0.09581	0.80202	8367.94643	870.25694	6883.53481	1061.02325	0.80116	8268.00000	865.00000	6796.00000
1069.15323	0.09467	0.80413	8674.59951	877.92605	7147.48124	1067.21362	0.80348	8586.00000	882.00000	7072.00000
1075.34758	0.09332	0.80665	8958.19691	861.24829	7392.65743	1073.40399	0.80577	8863.00000	862.00000	7309.00000
1081.54194	0.09185	0.80938	9269.61857	868.88623	7668.27862	1079.59436	0.80860	9175.00000	868.00000	7585.00000
1087.73629	0.09085	0.81124	9599.77547	889.96693	7955.70674	1085.78473	0.81076	9485.00000	877.00000	7856.00000
1093.93065	0.09012	0.81261	9958.85840	903.23915	8261.98428	1091.97510	0.81216	9855.00000	911.00000	8175.00000
1100.12500	0.08960	0.81358	10287.04131	864.70017	8530.47366	1098.16547	0.81341	10175.00000	871.00000	8439.00000
1106.31935	0.08952	0.81373	10673.09117	870.26271	8847.18162	1104.35584	0.81367	10550.00000	868.00000	8746.00000
1112.51371	0.08954	0.81368	11054.17109	867.39097	9156.19549	1110.54621	0.81379	10934.00000	870.00000	9060.00000
1118.70806	0.09018	0.81250	11440.58269	866.80701	9458.00301	1116.73658	0.81303	11315.00000	864.00000	9361.00000
1124.90242	0.09199	0.80912	11853.47185	879.92340	9758.82639	1122.92695	0.81055	11719.00000	877.00000	9665.00000
1131.09677	0.09587	0.80191	12279.20991	877.48685	10020.58215	1129.11732	0.80469	12144.00000	880.00000	9944.00000
1137.29113	0.10178	0.79107	12658.45812	855.49825	10192.60043	1135.30769	0.79481	12547.00000	865.00000	10150.00000
1143.48548	0.10888	0.77825	13049.18681	852.30684	10344.40967	1141.49806	0.78252	12906.00000	845.00000	10283.00000
1149.67984	0.11634	0.76499	13533.98158	886.77209	10561.98899	1147.68843	0.76918	13382.00000	879.00000	10496.00000
1155.87419	0.12505	0.74981	13997.40073	876.37382	10714.45672	1153.87880	0.75532	13845.00000	885.00000	10674.00000
1162.06855	0.13533	0.73227	14503.46887	861.13988	10851.13972	1160.06917	0.73759	14335.00000	860.00000	10799.00000
1168.26290	0.14367	0.71833	15009.58309	885.01032	11031.23610	1166.25954	0.72252	14853.00000	877.00000	10975.00000
1174.45726	0.15183	0.70497	15471.50866	888.01740	11168.90386	1172.44991	0.70956	15322.00000	892.00000	11131.00000
1180.65161	0.16085	0.69047	15938.18293	858.48109	11270.63604	1178.64028	0.69505	15786.00000	869.00000	11237.00000
1186.84597	0.16838	0.67860	16436.20435	853.30650	11427.88825	1184.83065	0.68202	16267.00000	848.00000	11364.00000
1193.04032	0.17334	0.67090	16954.92806	876.34677	11663.49138	1191.02102	0.67297	16791.00000	872.00000	11585.00000
1199.23468	0.17613	0.66661	17462.35109	876.98642	11932.88079	1197.21139	0.66772	17291.00000	877.00000	11837.00000
1205.42903	0.17721	0.66496	17986.83670	869.01927	12251.58199	1203.40176	0.66517	17820.00000	874.00000	12146.00000
1211.62339	0.17543	0.66768	18479.84056	863.23699	12625.50935	1209.59213	0.66609	18318.00000	861.00000	12489.00000
1217.81774	0.16996	0.67614	19014.17361	874.89956	13139.64857	1215.78250	0.67287	18829.00000	873.00000	12955.00000
1224.01210	0.16273	0.68750	19594.72563	876.04482	13745.08979	1221.97287	0.68367	19406.00000	875.00000	13544.00000
1230.20645	0.15620	0.69790	20120.20026	872.48020	14305.46598	1228.16324	0.69481	19956.00000	876.00000	14133.00000
1236.40081	0.15149	0.70552	20649.23727	886.34799	14829.41203	1234.35361	0.70322	20461.00000	874.00000	14648.00000
1242.59516	0.14786	0.71144	21186.14180	892.43754	15330.18620	1240.54398	0.70964	21027.00000	904.00000	15184.00000
1248.78952	0.14506	0.71605	21639.43707	853.74756	15737.36089	1246.73435	0.71465	21481.00000	857.00000	15596.00000
1254.98387	0.14284	0.71972	22186.10389	887.90098	16216.64625	1252.92472	0.71857	21995.00000	874.00000	16051.00000
1261.17823	0.14136	0.72217	22744.98332	890.64324	16673.05022	1259.11509	0.72157	22568.00000	900.00000	16535.00000
1267.37258	0.14064	0.72337	23243.71070	844.15789	17047.24760	1265.30546	0.72296	23078.00000	857.00000	16922.00000
1273.56694	0.13930	0.72561	23813.43146	859.99157	17515.21142	1271.49583	0.72462	23605.00000	844.00000	17337.00000
1279.76129	0.13703	0.72940	24453.54449	898.95555	18079.67473	1277.68620	0.72807	24247.00000	895.00000	17897.00000
1285.95565	0.13462	0.73346	25039.29282	882.87107	18600.61809	1283.87657	0.73208	24843.00000	888.00000	18425.00000
1292.15000	0.13228	0.73743	25633.20976	874.48479	19132.33835	1290.06694	0.73614	25432.00000	877.00000	18953.00000
1298.34435	0.13047	0.74050	26275.57944	875.36170	19684.24067	1296.25731	0.73963	26049.00000	873.00000	19494.00000
1304.53871	0.12956	0.74207	26910.28272	864.72671	20192.34270	1302.44769	0.74170	26712.00000	874.00000	20038.00000
1310.73306	0.12951	0.74215	27539.76334	865.28161	20661.87068	1308.63806	0.74231	27304.00000	854.00000	20488.00000
1316.92742	0.13045	0.74054	28270.79252	884.98210	21165.14472	1314.82843	0.74129	28032.00000	890.00000	21010.00000
1323.12177	0.13251	0.73704	28955.06915	860.68820	21567.49798	1321.01880	0.73845	28719.00000	862.00000	21433.00000
1329.31613	0.13591	0.73130	29633.32179	868.03484	21903.98519	1327.20917	0.73355	29411.00000	869.00000	21806.00000
1335.51048	0.14112	0.72258	30302.79696	861.31771	22135.03146	1333.39954	0.72592	30064.00000	861.00000	22060.00000
1341.70484	0.14835	0.71064	31040.63710	883.35260	22314.35938	1339.58991	0.71506	30788.00000	873.00000	22264.00000
1347.89919	0.15746	0.69589	31710.62252	886.82909	22337.00324	1345.78028	0.70122	31498.00000	894.00000	22354.00000
1354.09355	0.16759	0.67984	32368.46417	858.22619	22279.87083	1351.97065	0.68531	32123.00000	864.00000	22286.00000
1360.28790	0.17713	0.66508	33079.41609	863.88248	22289.98677	1358.16102	0.66989	32852.00000	860.00000	22291.00000
1366.48226	0.18575	0.65200	33719.60962	862.84716	22285.26089	1364.35139	0.65642	33491.00000	867.00000	22282.00000
1372.67661	0.19379	0.64005	34419.13569	848.00380	22335.16385	1370.54176	0.64395	34178.00000	851.00000	22312.00000
1378.87097	0.20061	0.63007	34997.78982	865.89108	22371.49259	1376.73213	0.63331	34829.00000	855.00000	22371.00000
1385.06532	0.20682	0.62113	35282.55609	871.96034	22245.32889	1382.92250	0.62422	35216.00000	879.00000	22313.00000
1391.25968	0.21304	0.61229	35454.56849	868.59113	22045.18846	1389.11287	0.61531	35383.00000	859.00000	22102.00000
1397.45403	0.22034	0.60209	35619.60134	886.37628	21799.14163	1395.30324	0.60608	35583.00000	891.00000	21917.00000
1403.64839	0.23194	0.58621	35834.55471	865.31191	21364.82377	1401.49361	0.59260	35714.00000	866.00000	21517.00000
1409.84274	0.24975	0.56267	36489.35769	873.82043	20913.30584	1407.68398	0.57170	36214.00000	874.00000	21078.00000
1416.03710	0.27299	0.53334	37454.71523	877.22955	20385.54705	1413.87435	0.54400	37098.00000	872.00000	20579.00000
1422.23145	0.29940	0.50188	38501.95566	886.60375	19765.20611	1420.06472	0.51293	38137.00000	888.00000	19994.00000
1428.42581	0.32720	0.47077	39622.23895	874.12429	19114.67502	1426.25509	0.48152	39208.00000	877.00000	19334.00000
1434.62016	0.35198	0.44465	40761.26708	872.53526	18609.30411	1432.44546	0.45269	40388.00000	873.00000	18761.00000
1440.81452	0.36661	0.42992	41685.67119	872.92918	18419.31211	1438.63583	0.43370	41375.00000	872.00000	18438.00000
1447.00887	0.37243	0.42420	42697.97010	892.09592	18626.22543	1444.82620	0.42573	42303.00000	882.00000	18516.00000
1453.20323	0.37627	0.42046	43743.69350	881.19502	18903.29906	1451.01657	0.42182	43420.00000	897.00000	18834.00000
1459.39758	0.38022	0.41666	44616.30730	861.83262	19092.61199	1457.20694	0.41794	44284.00000	854.00000	19005.00000
1465.59194	0.38349	0.41353	45681.51347	893.65188	19414.66501	1463.39731	0.41457	45294.00000	891.00000	19299.00000
1471.78629	0.38603	0.41112	46691.44736	880.41136	19714.19602	1469.58768	0.41187	46358.00000	883.00000	19613.00000
1477.98065	0.38776	0.40949	47539.84378	864.96700	19977.73193	1475.77805	0.40999	47244.00000	875.00000	19886.00000
1484.17500	0.38879	0.40851	48453.02745	858.97393	20301.84202	1481.96842	0.40878	48107.00000	852.00000	20169.00000
1490.36935	0.38931	0.40803	49314.35954	885.82004	20646.19515	1488.15879	0.40818	49049.00000	881.00000	20542.00000
1496.56371	0.38913	0.40820	50001.49019	880.23876	20931.33855	1494.34916	0.40800	49741.00000	883.00000	20817.00000
1502.75806	0.38783	0.40942	50705.77350	864.52184	21270.67838	1500.53953	0.40889	50474.00000	872.00000	21154.00000
1508.95242	0.38582	0.41132	51385.78695	891.73536	21661.20441	1506.72990	0.41058	51118.00000	869.00000	21500.00000
1515.14677	0.38340	0.41362	52107.85403	893.71978	22076.82898	1512.92027	0.41278	51872.00000	917.00000	21950.00000
1521.34113	0.38075	0.41615	52815.89525	851.69957	22476.85601	1519.11064	0.41520	52530.00000	844.00000	22304.00000
1527.53548	0.37807	0.41872	53548.61369	896.26537	22943.01544	1525.30101	0.41784	53323.00000	892.00000	22800.00000
1533.72984	0.37575	0.42097	54149.95370	878.59624	23304.30988	1531.49138	0.42017	53910.00000	882.00000	23163.00000
1539.92419	0.37362	0.42304	54832.12801	868.84378	23697.61639	1537.68175	0.42233	54600.00000	876.00000	23565.00000
1546.11855	0.37202	0.42460	55451.13851	864.00141	24041.79971	1543.87212	0.42413	55220.00000	859.00000	23915.00000
1552.31290	0.37110	0.42550	56042.33834	881.37311	24352.42625	1550.06249	0.42523	55845.00000	879.00000	24252.00000
1558.50726	0.37071	0.42588	56662.34212	881.97129	24637.86991	1556.25286	0.42582	56406.00000	880.00000	24524.00000
1564.70161	0.37096	0.42564	57241.63462	881.81730	24870.66843	1562.44323	0.42579	57084.00000	885.00000	24814.00000
1570.89597	0.37135	0.42526	57652.97230	868.16681	25016.40907	1568.63360	0.42535	57470.00000	872.00000	24946.00000
1577.09032	0.37126	0.42534	58206.47218	874.43948	25260.08975	1574.82397	0.42526	58018.00000	869.00000	25172.00000
1583.28468	0.37050	0.42609	58673.40818	887.42953	25509.60541	1581.01434	0.42571	58502.00000	885.00000	25413.00000
1589.47903	0.36877	0.42779	59041.87130	888.83630	25765.82447	1587.20471	0.42706	58934.00000	888.00000	25677.00000
1595.67339	0.36599	0.43053	59358.10218	876.53006	26054.84691	1593.39508	0.42938	59218.00000	885.00000	25932.00000
1601.86774	0.36218	0.43433	59778.17203	883.72242	26463.01115	1599.58545	0.43284	59632.00000	871.00000	26305.00000
1608.06210	0.35771	0.43882	60103.05486	896.34115	26877.66848	1605.77582	0.43709	59993.00000	904.00000	26731.00000
1614.25645	0.35273	0.44389	60403.71328	879.81794	27301.61486	1611.96619	0.44196	60288.00000	876.00000	27134.00000
1620.45081	0.34764	0.44911	60606.54759	887.56155	27708.15668	1618.15656	0.44719	60563.00000	893.00000	27577.00000
1626.64516	0.34267	0.45428	60733.55595	878.59339	28069.80842	1624.34693	0.45236	60663.00000	874.00000	27920.00000
1632.83952	0.33775	0.45946	60986.21919	889.52033	28501.88154	1630.53730	0.45755	60896.00000	892.00000	28347.00000
1639.03387	0.33314	0.46437	61048.69415	866.62659	28813.17417	1636.72767	0.46260	61067.00000	874.00000	28719.00000
1645.22823	0.32889	0.46894	60863.78586	869.32764	29003.27599	1642.91804	0.46725	60949.00000	864.00000	28939.00000
1651.42258	0.32498	0.47317	59805.79968	899.77194	28772.35152	1649.10841	0.47166	60411.00000	887.00000	28962.00000
1657.61694	0.32180	0.47665	57584.63778	905.33477	27921.23754	1655.29878	0.47546	58428.00000	911.00000	28258.00000
1663.81129	0.31927	0.47944	56481.05190	890.63733	27543.28527	1661.48915	0.47843	56625.00000	891.00000	27556.00000
1670.00565	0.31760	0.48129	55048.67016	902.23167	26962.13323	1667.67952	0.48080	56028.00000	899.00000	27405.00000
1676.20000	0.31741	0.48149	51378.45954	875.98122	25191.53970	1673.86989	0.48158	52735.00000	893.00000	25859.00000
0.00000	0.00000	0.00000	0.00000	0.00000	0.00000	1680.06026	0.48066	48849.00000	859.00000	23926.00000
0.00000	0.00000	0.00000	0.00000	0.00000	0.00000	1686.25063	0.47810	44181.00000	908.00000	21597.00000
0.00000	0.00000	0.00000	0.00000	0.00000	0.00000	1692.44100	0.47810	44181.00000	908.00000	21597.00000
