'File 果珍_3_2016一月28_1131.xls
'Part ID 果珍_3
'Scan Created 2016/1/28 11:31:29
'Instrument S1-00205
'Version 1.5.7
'Integration Time 10100 s
'Number of Scans 50
'Units Absorbance
'Thermistor 49.04
Wavelength	Absorbance	Normalized	100%	dark	Raw 1	Native Wvl	Native Norm	Native 100%	Native dark	Native 1
908.10000	0.24895	0.56370	3595.82598	881.87120	2410.82736	906.26400	0.55635	3684.00000	880.00000	2440.00000
914.29435	0.23157	0.58672	3338.07467	866.26472	2316.83005	912.45437	0.58030	3404.00000	876.00000	2343.00000
920.48871	0.21325	0.61199	3265.72768	878.51909	2339.46894	918.64474	0.60325	3257.00000	860.00000	2306.00000
926.68306	0.19258	0.64183	3334.01990	918.74175	2468.82622	924.83511	0.63375	3324.00000	924.00000	2445.00000
932.87742	0.17455	0.66903	3389.36197	864.93184	2553.98820	931.02548	0.66008	3355.00000	875.00000	2512.00000
939.07177	0.15516	0.69959	3619.59224	884.95115	2798.08567	937.21585	0.69107	3537.00000	873.00000	2714.00000
945.26613	0.14168	0.72165	3856.44440	889.93616	3030.65556	943.40622	0.71606	3802.00000	900.00000	2978.00000
951.46048	0.13388	0.73471	4005.12223	859.91735	3170.74898	949.59659	0.73159	3955.00000	859.00000	3124.00000
957.65484	0.13083	0.73989	4215.51392	893.73656	3351.46228	955.78696	0.73920	4148.00000	885.00000	3297.00000
963.84919	0.13087	0.73982	4374.23623	878.43417	3464.71169	961.97733	0.73994	4344.00000	891.00000	3446.00000
970.04355	0.13314	0.73597	4523.41127	896.06510	3565.79927	968.16770	0.73814	4453.00000	871.00000	3515.00000
976.23790	0.14566	0.71506	4726.50938	925.04592	3643.02562	974.35807	0.72412	4693.00000	945.00000	3659.00000
982.43226	0.16051	0.69101	4835.26800	856.06452	3605.94283	980.54844	0.69495	4778.00000	854.00000	3581.00000
988.62661	0.15686	0.69686	5079.18703	905.14928	3813.88642	986.73881	0.69309	5013.00000	901.00000	3751.00000
994.82097	0.14953	0.70871	5288.13901	870.37131	4001.24971	992.92918	0.70611	5216.00000	881.00000	3942.00000
1001.01532	0.14833	0.71067	5547.24444	876.96250	4195.99501	999.11955	0.71084	5470.00000	867.00000	4139.00000
1007.20968	0.14951	0.70875	5821.73207	889.84005	4385.27403	1005.30992	0.70929	5729.00000	896.00000	4324.00000
1013.40403	0.14872	0.71003	6108.36987	875.33513	4590.99508	1011.50029	0.70897	6031.00000	870.00000	4529.00000
1019.59839	0.14605	0.71442	6349.51155	919.49996	4798.81061	1017.69066	0.71330	6269.00000	908.00000	4732.00000
1025.79274	0.14510	0.71598	6610.09178	908.88037	4990.79386	1023.88103	0.71576	6536.00000	921.00000	4940.00000
1031.98710	0.14405	0.71771	6863.27600	885.10537	5175.78111	1030.07140	0.71678	6776.00000	883.00000	5107.00000
1038.18145	0.14178	0.72148	7137.95533	879.30949	5394.71232	1036.26177	0.72042	7062.00000	892.00000	5337.00000
1044.37581	0.13966	0.72500	7415.45215	852.78191	5610.80586	1042.45214	0.72374	7313.00000	848.00000	5527.00000
1050.57016	0.13753	0.72857	7763.75520	889.74850	5897.85748	1048.64251	0.72773	7664.00000	884.00000	5818.00000
1056.76452	0.13642	0.73042	8043.98752	873.54577	6111.00899	1054.83288	0.72983	7958.00000	881.00000	6046.00000
1062.95887	0.13477	0.73321	8346.47029	875.55305	6353.36132	1061.02325	0.73218	8246.00000	868.00000	6270.00000
1069.15323	0.13333	0.73565	8651.05608	883.28349	6597.54466	1067.21362	0.73521	8564.00000	890.00000	6532.00000
1075.34758	0.13253	0.73700	8931.01237	859.29405	6808.19836	1073.40399	0.73633	8836.00000	860.00000	6733.00000
1081.54194	0.13102	0.73958	9243.78719	871.40916	7063.35409	1079.59436	0.73886	9149.00000	870.00000	6987.00000
1087.73629	0.12926	0.74257	9580.78777	901.76500	7346.63813	1085.78473	0.74135	9462.00000	883.00000	7243.00000
1093.93065	0.12708	0.74632	9940.76391	922.65990	7652.98374	1091.97510	0.74540	9841.00000	933.00000	7573.00000
1100.12500	0.12607	0.74805	10254.38783	869.25749	7889.76637	1098.16547	0.74757	10144.00000	878.00000	7805.00000
1106.31935	0.12485	0.75016	10641.04469	875.00467	8201.09572	1104.35584	0.74933	10519.00000	873.00000	8101.00000
1112.51371	0.12333	0.75278	11015.80766	872.41348	8508.18913	1110.54621	0.75207	10897.00000	874.00000	8412.00000
1118.70806	0.12277	0.75375	11401.60672	872.77123	8808.90556	1116.73658	0.75368	11276.00000	871.00000	8713.00000
1124.90242	0.12380	0.75197	11814.30888	885.70510	9103.78934	1122.92695	0.75294	11680.00000	881.00000	9012.00000
1131.09677	0.12786	0.74497	12236.17715	886.26842	9341.44188	1129.11732	0.74797	12103.00000	890.00000	9277.00000
1137.29113	0.13396	0.73459	12606.57558	854.95675	9487.74987	1135.30769	0.73768	12498.00000	867.00000	9447.00000
1143.48548	0.13940	0.72544	12995.31207	851.62722	9661.05848	1141.49806	0.72851	12851.00000	843.00000	9591.00000
1149.67984	0.14681	0.71316	13491.13514	894.93569	9878.31950	1147.68843	0.71769	13335.00000	884.00000	9820.00000
1155.87419	0.15878	0.69378	13953.07917	885.15852	9951.03319	1153.87880	0.70098	13805.00000	896.00000	9945.00000
1162.06855	0.17164	0.67354	14446.12872	862.12568	10011.74786	1160.06917	0.67891	14279.00000	862.00000	9971.00000
1168.26290	0.17958	0.66133	14959.02414	891.75197	10194.85215	1166.25954	0.66506	14800.00000	881.00000	10138.00000
1174.45726	0.18799	0.64866	15420.71473	898.79570	10318.41369	1172.44991	0.65303	15273.00000	903.00000	10287.00000
1180.65161	0.19695	0.63541	15876.41905	861.08105	10402.08466	1178.64028	0.63947	15728.00000	875.00000	10373.00000
1186.84597	0.20503	0.62370	16371.22020	852.06070	10531.14947	1184.83065	0.62748	16201.00000	846.00000	10481.00000
1193.04032	0.21060	0.61575	16894.18264	880.38932	10740.94173	1191.02102	0.61734	16730.00000	875.00000	10663.00000
1199.23468	0.21033	0.61612	17400.55626	883.09277	11059.98622	1197.21139	0.61534	17229.00000	882.00000	10941.00000
1205.42903	0.20847	0.61877	17922.85290	876.52702	11424.18064	1203.40176	0.61816	17758.00000	882.00000	11314.00000
1211.62339	0.20663	0.62140	18412.23826	867.41129	11769.82085	1209.59213	0.62011	18250.00000	866.00000	11646.00000
1217.81774	0.20305	0.62655	18946.64823	877.09601	12198.38924	1215.78250	0.62487	18763.00000	876.00000	12053.00000
1224.01210	0.19900	0.63241	19522.38589	879.59709	12669.66846	1221.97287	0.63022	19334.00000	877.00000	12509.00000
1230.20645	0.19487	0.63845	20046.82356	877.27220	13116.00887	1228.16324	0.63683	19884.00000	882.00000	12983.00000
1236.40081	0.19357	0.64037	20578.92550	894.33634	13499.67079	1234.35361	0.64022	20387.00000	878.00000	13368.00000
1242.59516	0.19395	0.63982	21116.97255	904.50586	13836.78667	1240.54398	0.63997	20962.00000	919.00000	13746.00000
1248.78952	0.19364	0.64026	21555.61107	852.78714	14107.99022	1246.73435	0.63994	21399.00000	858.00000	14003.00000
1254.98387	0.19241	0.64208	22112.97196	897.03001	14519.55439	1252.92472	0.64138	21917.00000	878.00000	14372.00000
1261.17823	0.19218	0.64243	22669.33634	902.45329	14885.96421	1259.11509	0.64282	22498.00000	915.00000	14789.00000
1267.37258	0.19387	0.63993	23144.86310	840.51764	15113.74826	1265.30546	0.64073	22985.00000	857.00000	15035.00000
1273.56694	0.19364	0.64027	23720.39347	860.92978	15497.13766	1271.49583	0.63953	23506.00000	841.00000	15336.00000
1279.76129	0.19030	0.64521	24372.77955	913.59084	16049.61988	1277.68620	0.64325	24166.00000	906.00000	15868.00000
1285.95565	0.18601	0.65161	24945.52650	893.87771	16566.08914	1283.87657	0.64945	24754.00000	903.00000	16393.00000
1292.15000	0.18196	0.65772	25532.41484	877.59600	17093.57542	1290.06694	0.65573	25332.00000	880.00000	16914.00000
1298.34435	0.17867	0.66272	26175.67024	884.75253	17645.72561	1296.25731	0.66124	25949.00000	881.00000	17457.00000
1304.53871	0.17711	0.66510	26805.92834	868.00311	18119.27898	1302.44769	0.66470	26610.00000	881.00000	17983.00000
1310.73306	0.17727	0.66486	27432.03993	867.23944	18529.23997	1308.63806	0.66507	27196.00000	853.00000	18373.00000
1316.92742	0.17825	0.66336	28161.82657	892.73544	18982.03108	1314.82843	0.66406	27925.00000	899.00000	18846.00000
1323.12177	0.18055	0.65985	28842.74169	862.95220	19325.54189	1321.01880	0.66131	28606.00000	864.00000	19210.00000
1329.31613	0.18487	0.65332	29519.54369	871.94640	19588.13018	1327.20917	0.65598	29300.00000	874.00000	19521.00000
1335.51048	0.19187	0.64288	30183.25265	863.66515	19712.60654	1333.39954	0.64686	29944.00000	862.00000	19674.00000
1341.70484	0.20149	0.62879	30926.51890	893.32929	19777.83654	1339.58991	0.63400	30673.00000	881.00000	19769.00000
1347.89919	0.21352	0.61162	31587.63481	894.88004	19667.41309	1345.78028	0.61776	31380.00000	904.00000	19731.00000
1354.09355	0.22653	0.59357	32227.78710	859.30420	19478.35024	1351.97065	0.59963	31988.00000	867.00000	19528.00000
1360.28790	0.23829	0.57772	32929.95072	867.11433	19390.70253	1358.16102	0.58280	32704.00000	861.00000	19419.00000
1366.48226	0.24870	0.56403	33569.06337	866.55753	19311.44100	1364.35139	0.56865	33341.00000	873.00000	19336.00000
1372.67661	0.25665	0.55379	34261.83351	843.87902	19350.71341	1370.54176	0.55649	34024.00000	848.00000	19310.00000
1378.87097	0.25871	0.55118	34838.67465	870.52277	19593.15525	1376.73213	0.55130	34668.00000	855.00000	19496.00000
1385.06532	0.25785	0.55226	35121.03064	877.10458	19788.74634	1382.92250	0.55196	35059.00000	888.00000	19749.00000
1391.25968	0.25824	0.55177	35289.43299	872.38486	19862.75055	1389.11287	0.55219	35214.00000	858.00000	19829.00000
1397.45403	0.26107	0.54818	35460.60298	899.47130	19845.41497	1395.30324	0.54993	35427.00000	906.00000	19890.00000
1403.64839	0.26809	0.53939	35666.10671	869.36576	19638.69378	1401.49361	0.54316	35545.00000	870.00000	19704.00000
1409.84274	0.28169	0.52277	36323.03255	883.09719	19409.79258	1407.68398	0.52967	36050.00000	883.00000	19510.00000
1416.03710	0.30300	0.49774	37284.68636	884.03189	19001.84157	1413.87435	0.50717	36926.00000	879.00000	19161.00000
1422.23145	0.32975	0.46801	38329.42739	892.53935	18414.01730	1420.06472	0.47879	37970.00000	895.00000	18646.00000
1428.42581	0.36236	0.43415	39434.74114	878.71439	17616.38878	1426.25509	0.44655	39022.00000	881.00000	17913.00000
1434.62016	0.39254	0.40501	40575.07439	880.06733	16957.42244	1432.44546	0.41319	40203.00000	880.00000	17128.00000
1440.81452	0.39952	0.39855	41493.68414	879.47622	17066.09623	1438.63583	0.39784	41184.00000	879.00000	16914.00000
1447.00887	0.38791	0.40935	42510.04768	905.41306	17936.53862	1444.82620	0.40503	42113.00000	891.00000	17587.00000
1453.20323	0.37912	0.41772	43543.72896	892.86717	18708.49651	1451.01657	0.41583	43229.00000	914.00000	18510.00000
1459.39758	0.37893	0.41790	44405.02794	864.61268	19060.31800	1457.20694	0.41847	44070.00000	855.00000	18939.00000
1465.59194	0.38315	0.41386	45481.34063	906.97918	19354.32706	1463.39731	0.41563	45094.00000	903.00000	19270.00000
1471.78629	0.38884	0.40847	46480.51435	890.87025	19512.98773	1469.58768	0.41031	46150.00000	894.00000	19463.00000
1477.98065	0.39351	0.40410	47320.91755	868.50781	19640.08521	1475.77805	0.40552	47029.00000	883.00000	19596.00000
1484.17500	0.39691	0.40095	48225.65661	857.63729	19849.90384	1481.96842	0.40194	47881.00000	849.00000	19753.00000
1490.36935	0.39948	0.39859	49092.30051	893.89890	20105.19600	1488.15879	0.39940	48824.00000	887.00000	20033.00000
1496.56371	0.40170	0.39656	49778.04514	887.35808	20275.21255	1494.34916	0.39722	49521.00000	891.00000	20208.00000
1502.75806	0.40322	0.39517	50469.48096	863.36996	20466.27044	1500.53953	0.39558	50241.00000	875.00000	20403.00000
1508.95242	0.40393	0.39452	51158.04064	897.54966	20726.36791	1506.72990	0.39469	50884.00000	867.00000	20608.00000
1515.14677	0.40469	0.39383	51878.91086	902.58342	20978.38980	1512.92027	0.39417	51650.00000	933.00000	20924.00000
1521.34113	0.40540	0.39319	52577.57434	850.45197	21189.19068	1519.11064	0.39328	52288.00000	838.00000	21072.00000
1527.53548	0.40535	0.39323	53324.26188	911.75147	21521.85278	1525.30101	0.39325	53098.00000	907.00000	21431.00000
1533.72984	0.40496	0.39358	53919.19306	885.74627	21758.92372	1531.49138	0.39331	53680.00000	890.00000	21653.00000
1539.92419	0.40381	0.39463	54593.00479	874.24673	22073.32565	1537.68175	0.39427	54367.00000	884.00000	21971.00000
1546.11855	0.40284	0.39551	55208.54831	866.87961	22359.70331	1543.87212	0.39519	54973.00000	860.00000	22245.00000
1552.31290	0.40222	0.39608	55811.51925	888.84465	22642.63816	1550.06249	0.39597	55614.00000	887.00000	22557.00000
1558.50726	0.40256	0.39577	56431.29012	888.46797	22870.52486	1556.25286	0.39599	56172.00000	885.00000	22778.00000
1564.70161	0.40398	0.39447	57011.94896	890.80855	23029.22232	1562.44323	0.39506	56858.00000	895.00000	23004.00000
1570.89597	0.40586	0.39277	57413.89650	869.93991	23078.51403	1568.63360	0.39335	57231.00000	876.00000	23043.00000
1577.09032	0.40733	0.39145	57979.03512	879.44141	23230.89280	1574.82397	0.39190	57786.00000	871.00000	23176.00000
1583.28468	0.40842	0.39046	58450.11400	894.72676	23368.03991	1581.01434	0.39076	58279.00000	894.00000	23318.00000
1589.47903	0.40843	0.39045	58825.25008	895.18773	23514.25088	1587.20471	0.39028	58712.00000	892.00000	23458.00000
1595.67339	0.40672	0.39199	59146.72764	885.70009	23723.62158	1593.39508	0.39125	59009.00000	896.00000	23633.00000
1601.86774	0.40332	0.39507	59574.82387	893.37146	24076.88168	1599.58545	0.39375	59419.00000	877.00000	23928.00000
1608.06210	0.39874	0.39926	59920.72690	909.46488	24470.29143	1605.77582	0.39766	59809.00000	920.00000	24338.00000
1614.25645	0.39361	0.40401	60220.95853	887.30010	24858.65440	1611.96619	0.40216	60102.00000	882.00000	24698.00000
1620.45081	0.38833	0.40895	60438.83040	897.12192	25246.79869	1618.15656	0.40719	60391.00000	905.00000	25127.00000
1626.64516	0.38311	0.41390	60579.30309	884.35356	25591.87190	1624.34693	0.41196	60502.00000	878.00000	25441.00000
1632.83952	0.37764	0.41914	60848.95373	899.57786	26026.73385	1630.53730	0.41725	60754.00000	903.00000	25876.00000
1639.03387	0.37285	0.42379	60928.35809	870.27700	26322.33501	1636.72767	0.42212	60938.00000	879.00000	26231.00000
1645.22823	0.36854	0.42802	60778.06969	873.98452	26514.27344	1642.91804	0.42649	60849.00000	868.00000	26449.00000
1651.42258	0.36458	0.43193	59777.88214	914.49031	26339.28023	1649.10841	0.43050	60357.00000	896.00000	26494.00000
1657.61694	0.36113	0.43538	57642.70006	920.63108	25616.00555	1655.29878	0.43417	58452.00000	931.00000	25905.00000
1663.81129	0.35790	0.43864	56689.89176	898.36344	25371.44039	1661.48915	0.43736	56762.00000	897.00000	25330.00000
1670.00565	0.35432	0.44226	55553.85124	917.06266	25079.72710	1667.67952	0.44089	56404.00000	914.00000	25379.00000
1676.20000	0.35106	0.44559	52318.47966	879.24303	23801.12983	1673.86989	0.44443	53497.00000	901.00000	24276.00000
0.00000	0.00000	0.00000	0.00000	0.00000	0.00000	1680.06026	0.44726	50136.00000	860.00000	22899.00000
0.00000	0.00000	0.00000	0.00000	0.00000	0.00000	1686.25063	0.44893	46019.00000	923.00000	21168.00000
0.00000	0.00000	0.00000	0.00000	0.00000	0.00000	1692.44100	0.44893	46019.00000	923.00000	21168.00000
