'File 果珍_4_2016一月28_1131.xls
'Part ID 果珍_4
'Scan Created 2016/1/28 11:31:32
'Instrument S1-00205
'Version 1.5.7
'Integration Time 10100 s
'Number of Scans 50
'Units Absorbance
'Thermistor 49.04
Wavelength	Absorbance	Normalized	100%	dark	Raw 1	Native Wvl	Native Norm	Native 100%	Native dark	Native 1
908.10000	0.23551	0.58142	3595.82598	881.87120	2458.97994	906.26400	0.57454	3684.00000	880.00000	2491.00000
914.29435	0.21979	0.60286	3338.07467	866.26472	2356.68696	912.45437	0.59691	3404.00000	876.00000	2385.00000
920.48871	0.20367	0.62566	3265.72768	878.51909	2372.07356	918.64474	0.61786	3257.00000	860.00000	2341.00000
926.68306	0.18560	0.65223	3334.01990	918.74175	2493.96016	924.83511	0.64500	3324.00000	924.00000	2472.00000
932.87742	0.16974	0.67649	3389.36197	864.93184	2572.76522	931.02548	0.66855	3355.00000	875.00000	2533.00000
939.07177	0.15224	0.70431	3619.59224	884.95115	2811.04368	937.21585	0.69632	3537.00000	873.00000	2728.00000
945.26613	0.13979	0.72479	3856.44440	889.93616	3039.94305	943.40622	0.71985	3802.00000	900.00000	2989.00000
951.46048	0.13311	0.73602	4005.12223	859.91735	3174.90675	949.59659	0.73320	3955.00000	859.00000	3129.00000
957.65484	0.13051	0.74044	4215.51392	893.73656	3353.24269	955.78696	0.74012	4148.00000	885.00000	3300.00000
963.84919	0.13106	0.73951	4374.23623	878.43417	3463.64874	961.97733	0.73965	4344.00000	891.00000	3445.00000
970.04355	0.13314	0.73596	4523.41127	896.06510	3565.75748	968.16770	0.73814	4453.00000	871.00000	3515.00000
976.23790	0.14549	0.71533	4726.50938	925.04592	3644.05860	974.35807	0.72412	4693.00000	945.00000	3659.00000
982.43226	0.15947	0.69268	4835.26800	856.06452	3612.59848	980.54844	0.69623	4778.00000	854.00000	3586.00000
988.62661	0.15582	0.69852	5079.18703	905.14928	3820.80357	986.73881	0.69504	5013.00000	901.00000	3759.00000
994.82097	0.14926	0.70915	5288.13901	870.37131	4003.19950	992.92918	0.70681	5216.00000	881.00000	3945.00000
1001.01532	0.14795	0.71129	5547.24444	876.96250	4198.90398	999.11955	0.71128	5470.00000	867.00000	4141.00000
1007.20968	0.14886	0.70980	5821.73207	889.84005	4390.42272	1005.30992	0.71032	5729.00000	896.00000	4329.00000
1013.40403	0.14834	0.71065	6108.36987	875.33513	4594.25647	1011.50029	0.70975	6031.00000	870.00000	4533.00000
1019.59839	0.14609	0.71434	6349.51155	919.49996	4798.38479	1017.69066	0.71349	6269.00000	908.00000	4733.00000
1025.79274	0.14543	0.71543	6610.09178	908.88037	4987.65675	1023.88103	0.71523	6536.00000	921.00000	4937.00000
1031.98710	0.14421	0.71745	6863.27600	885.10537	5174.20392	1030.07140	0.71644	6776.00000	883.00000	5105.00000
1038.18145	0.14228	0.72064	7137.95533	879.30949	5389.42948	1036.26177	0.71994	7062.00000	892.00000	5334.00000
1044.37581	0.14078	0.72313	7415.45215	852.78191	5598.53750	1042.45214	0.72204	7313.00000	848.00000	5516.00000
1050.57016	0.13850	0.72695	7763.75520	889.74850	5886.73873	1048.64251	0.72596	7664.00000	884.00000	5806.00000
1056.76452	0.13731	0.72893	8043.98752	873.54577	6100.28669	1054.83288	0.72842	7958.00000	881.00000	6036.00000
1062.95887	0.13600	0.73114	8346.47029	875.55305	6337.92203	1061.02325	0.73028	8246.00000	868.00000	6256.00000
1069.15323	0.13477	0.73321	8651.05608	883.28349	6578.58137	1067.21362	0.73286	8564.00000	890.00000	6514.00000
1075.34758	0.13398	0.73455	8931.01237	859.29405	6788.47439	1073.40399	0.73383	8836.00000	860.00000	6713.00000
1081.54194	0.13238	0.73726	9243.78719	871.40916	7043.94222	1079.59436	0.73656	9149.00000	870.00000	6968.00000
1087.73629	0.13086	0.73985	9580.78777	901.76500	7323.02341	1085.78473	0.73878	9462.00000	883.00000	7221.00000
1093.93065	0.12875	0.74345	9940.76391	922.65990	7627.12631	1091.97510	0.74248	9841.00000	933.00000	7547.00000
1100.12500	0.12766	0.74532	10254.38783	869.25749	7864.15056	1098.16547	0.74487	10144.00000	878.00000	7780.00000
1106.31935	0.12668	0.74700	10641.04469	875.00467	8170.21858	1104.35584	0.74632	10519.00000	873.00000	8072.00000
1112.51371	0.12517	0.74960	11015.80766	872.41348	8475.89668	1110.54621	0.74878	10897.00000	874.00000	8379.00000
1118.70806	0.12455	0.75067	11401.60672	872.77123	8776.41366	1116.73658	0.75070	11276.00000	871.00000	8682.00000
1124.90242	0.12579	0.74854	11814.30888	885.70510	9066.30852	1122.92695	0.74951	11680.00000	881.00000	8975.00000
1131.09677	0.12957	0.74205	12236.17715	886.26842	9308.31727	1129.11732	0.74485	12103.00000	890.00000	9242.00000
1137.29113	0.13545	0.73207	12606.57558	854.95675	9458.13538	1135.30769	0.73510	12498.00000	867.00000	9417.00000
1143.48548	0.14076	0.72317	12995.31207	851.62722	9633.47231	1141.49806	0.72610	12851.00000	843.00000	9562.00000
1149.67984	0.14782	0.71152	13491.13514	894.93569	9857.50497	1147.68843	0.71585	13335.00000	884.00000	9797.00000
1155.87419	0.15919	0.69312	13953.07917	885.15852	9942.49325	1153.87880	0.69990	13805.00000	896.00000	9931.00000
1162.06855	0.17124	0.67416	14446.12872	862.12568	10020.13760	1160.06917	0.67921	14279.00000	862.00000	9975.00000
1168.26290	0.17863	0.66278	14959.02414	891.75197	10215.29065	1166.25954	0.66621	14800.00000	881.00000	10154.00000
1174.45726	0.18644	0.65097	15420.71473	898.79570	10351.97051	1172.44991	0.65511	15273.00000	903.00000	10317.00000
1180.65161	0.19486	0.63847	15876.41905	861.08105	10448.13536	1178.64028	0.64223	15728.00000	875.00000	10414.00000
1186.84597	0.20210	0.62791	16371.22020	852.06070	10596.57108	1184.83065	0.63133	16201.00000	846.00000	10540.00000
1193.04032	0.20725	0.62052	16894.18264	880.38932	10817.28197	1191.02102	0.62208	16730.00000	875.00000	10738.00000
1199.23468	0.20718	0.62062	17400.55626	883.09277	11134.22634	1197.21139	0.61993	17229.00000	882.00000	11016.00000
1205.42903	0.20551	0.62300	17922.85290	876.52702	11496.27511	1203.40176	0.62248	17758.00000	882.00000	11387.00000
1211.62339	0.20398	0.62520	18412.23826	867.41129	11836.59076	1209.59213	0.62408	18250.00000	866.00000	11715.00000
1217.81774	0.20084	0.62974	18946.64823	877.09601	12256.17671	1215.78250	0.62828	18763.00000	876.00000	12114.00000
1224.01210	0.19724	0.63498	19522.38589	879.59709	12717.45161	1221.97287	0.63298	19334.00000	877.00000	12560.00000
1230.20645	0.19347	0.64052	20046.82356	877.27220	13155.71133	1228.16324	0.63904	19884.00000	882.00000	13025.00000
1236.40081	0.19238	0.64212	20578.92550	894.33634	13534.20904	1234.35361	0.64206	20387.00000	878.00000	13404.00000
1242.59516	0.19283	0.64146	21116.97255	904.50586	13870.02765	1240.54398	0.64162	20962.00000	919.00000	13779.00000
1248.78952	0.19254	0.64188	21555.61107	852.78714	14141.52739	1246.73435	0.64159	21399.00000	858.00000	14037.00000
1254.98387	0.19147	0.64347	22112.97196	897.03001	14548.95595	1252.92472	0.64285	21917.00000	878.00000	14403.00000
1261.17823	0.19135	0.64366	22669.33634	902.45329	14912.72607	1259.11509	0.64407	22498.00000	915.00000	14816.00000
1267.37258	0.19298	0.64124	23144.86310	840.51764	15142.86007	1265.30546	0.64199	22985.00000	857.00000	15063.00000
1273.56694	0.19272	0.64163	23720.39347	860.92978	15528.26861	1271.49583	0.64090	23506.00000	841.00000	15367.00000
1279.76129	0.18968	0.64614	24372.77955	913.59084	16071.39150	1277.68620	0.64441	24166.00000	906.00000	15895.00000
1285.95565	0.18585	0.65186	24945.52650	893.87771	16572.15675	1283.87657	0.64987	24754.00000	903.00000	16403.00000
1292.15000	0.18201	0.65765	25532.41484	877.59600	17091.70833	1290.06694	0.65577	25332.00000	880.00000	16915.00000
1298.34435	0.17901	0.66221	26175.67024	884.75253	17632.60443	1296.25731	0.66088	25949.00000	881.00000	17448.00000
1304.53871	0.17766	0.66426	26805.92834	868.00311	18097.39820	1302.44769	0.66392	26610.00000	881.00000	17963.00000
1310.73306	0.17783	0.66400	27432.03993	867.23944	18506.25089	1308.63806	0.66420	27196.00000	853.00000	18350.00000
1316.92742	0.17881	0.66251	28161.82657	892.73544	18958.73877	1314.82843	0.66321	27925.00000	899.00000	18823.00000
1323.12177	0.18106	0.65908	28842.74169	862.95220	19303.97668	1321.01880	0.66048	28606.00000	864.00000	19187.00000
1329.31613	0.18515	0.65291	29519.54369	871.94640	19576.32893	1327.20917	0.65542	29300.00000	874.00000	19505.00000
1335.51048	0.19167	0.64317	30183.25265	863.66515	19721.12158	1333.39954	0.64686	29944.00000	862.00000	19674.00000
1341.70484	0.20060	0.63008	30926.51890	893.32929	19816.55035	1339.58991	0.63494	30673.00000	881.00000	19797.00000
1347.89919	0.21175	0.61412	31587.63481	894.88004	19743.94121	1345.78028	0.61980	31380.00000	904.00000	19793.00000
1354.09355	0.22362	0.59756	32227.78710	859.30420	19603.58303	1351.97065	0.60310	31988.00000	867.00000	19636.00000
1360.28790	0.23422	0.58315	32929.95072	867.11433	19565.05823	1358.16102	0.58776	32704.00000	861.00000	19577.00000
1366.48226	0.24364	0.57064	33569.06337	866.55753	19527.68259	1364.35139	0.57490	33341.00000	873.00000	19539.00000
1372.67661	0.25094	0.56113	34261.83351	843.87902	19595.71861	1370.54176	0.56363	34024.00000	848.00000	19547.00000
1378.87097	0.25293	0.55855	34838.67465	870.52277	19843.61633	1376.73213	0.55875	34668.00000	855.00000	19748.00000
1385.06532	0.25232	0.55934	35121.03064	877.10458	20031.13894	1382.92250	0.55910	35059.00000	888.00000	19993.00000
1391.25968	0.25269	0.55887	35289.43299	872.38486	20106.93898	1389.11287	0.55926	35214.00000	858.00000	20072.00000
1397.45403	0.25523	0.55560	35460.60298	899.47130	20101.83015	1395.30324	0.55717	35427.00000	906.00000	20140.00000
1403.64839	0.26147	0.54768	35666.10671	869.36576	19926.99389	1401.49361	0.55109	35545.00000	870.00000	19979.00000
1409.84274	0.27354	0.53268	36323.03255	883.09719	19761.01848	1407.68398	0.53889	36050.00000	883.00000	19834.00000
1416.03710	0.29219	0.51029	37284.68636	884.03189	19458.50764	1413.87435	0.51871	36926.00000	879.00000	19577.00000
1422.23145	0.31529	0.48385	38329.42739	892.53935	19006.89559	1420.06472	0.49341	37970.00000	895.00000	19188.00000
1428.42581	0.34314	0.45380	39434.74114	878.71439	18374.15119	1426.25509	0.46483	39022.00000	881.00000	18610.00000
1434.62016	0.36876	0.42780	40575.07439	880.06733	17861.99312	1432.44546	0.43511	40203.00000	880.00000	17990.00000
1440.81452	0.37466	0.42203	41493.68414	879.47622	18019.82071	1438.63583	0.42139	41184.00000	879.00000	17863.00000
1447.00887	0.36491	0.43160	42510.04768	905.41306	18862.50380	1444.82620	0.42781	42113.00000	891.00000	18526.00000
1453.20323	0.35761	0.43892	43543.72896	892.86717	19612.86828	1451.01657	0.43727	43229.00000	914.00000	19417.00000
1459.39758	0.35750	0.43904	44405.02794	864.61268	19980.70457	1457.20694	0.43957	44070.00000	855.00000	19851.00000
1465.59194	0.36106	0.43545	45481.34063	906.97918	20316.60224	1463.39731	0.43699	45094.00000	903.00000	20214.00000
1471.78629	0.36585	0.43067	46480.51435	890.87025	20525.09067	1469.58768	0.43234	46150.00000	894.00000	20460.00000
1477.98065	0.37008	0.42650	47320.91755	868.50781	20680.59852	1475.77805	0.42788	47029.00000	883.00000	20628.00000
1484.17500	0.37324	0.42341	48225.65661	857.63729	20913.67856	1481.96842	0.42437	47881.00000	849.00000	20808.00000
1490.36935	0.37560	0.42111	49092.30051	893.89890	21190.90457	1488.15879	0.42191	48824.00000	887.00000	21112.00000
1496.56371	0.37763	0.41915	49778.04514	887.35808	21379.66455	1494.34916	0.41978	49521.00000	891.00000	21305.00000
1502.75806	0.37905	0.41778	50469.48096	863.36996	21587.75021	1500.53953	0.41820	50241.00000	875.00000	21520.00000
1508.95242	0.37985	0.41701	51158.04064	897.54966	21856.94394	1506.72990	0.41722	50884.00000	867.00000	21735.00000
1515.14677	0.38061	0.41628	51878.91086	902.58342	22123.17197	1512.92027	0.41663	51650.00000	933.00000	22063.00000
1521.34113	0.38131	0.41561	52577.57434	850.45197	22348.83243	1519.11064	0.41572	52288.00000	838.00000	22227.00000
1527.53548	0.38140	0.41553	53324.26188	911.75147	22690.78278	1525.30101	0.41559	53098.00000	907.00000	22597.00000
1533.72984	0.38119	0.41573	53919.19306	885.74627	22933.48509	1531.49138	0.41553	53680.00000	890.00000	22826.00000
1539.92419	0.38036	0.41653	54593.00479	874.24673	23249.51908	1537.68175	0.41626	54367.00000	884.00000	23147.00000
1546.11855	0.37966	0.41720	55208.54831	866.87961	23538.16624	1543.87212	0.41694	54973.00000	860.00000	23422.00000
1552.31290	0.37925	0.41759	55811.51925	888.84465	23824.03076	1550.06249	0.41755	55614.00000	887.00000	23738.00000
1558.50726	0.37969	0.41717	56431.29012	888.46797	24059.31280	1556.25286	0.41740	56172.00000	885.00000	23962.00000
1564.70161	0.38105	0.41587	57011.94896	890.80855	24229.71242	1562.44323	0.41647	56858.00000	895.00000	24202.00000
1570.89597	0.38285	0.41414	57413.89650	869.93991	24287.28625	1568.63360	0.41471	57231.00000	876.00000	24247.00000
1577.09032	0.38419	0.41287	57979.03512	879.44141	24454.21561	1574.82397	0.41332	57786.00000	871.00000	24395.00000
1583.28468	0.38528	0.41183	58450.11400	894.72676	24597.86701	1581.01434	0.41216	58279.00000	894.00000	24546.00000
1589.47903	0.38548	0.41164	58825.25008	895.18773	24741.63881	1587.20471	0.41155	58712.00000	892.00000	24688.00000
1595.67339	0.38421	0.41285	59146.72764	885.70009	24938.90197	1593.39508	0.41225	59009.00000	896.00000	24853.00000
1601.86774	0.38147	0.41546	59574.82387	893.37146	25273.42807	1599.58545	0.41434	59419.00000	877.00000	25133.00000
1608.06210	0.37773	0.41905	59920.72690	909.46488	25638.28148	1605.77582	0.41768	59809.00000	920.00000	25517.00000
1614.25645	0.37351	0.42314	60220.95853	887.30010	25993.99081	1611.96619	0.42155	60102.00000	882.00000	25846.00000
1620.45081	0.36914	0.42743	60438.83040	897.12192	26346.71473	1618.15656	0.42590	60391.00000	905.00000	26240.00000
1626.64516	0.36482	0.43170	60579.30309	884.35356	26654.41342	1624.34693	0.43003	60502.00000	878.00000	26518.00000
1632.83952	0.36029	0.43623	60848.95373	899.57786	27051.18480	1630.53730	0.43460	60754.00000	903.00000	26914.00000
1639.03387	0.35631	0.44025	60928.35809	870.27700	27310.45508	1636.72767	0.43880	60938.00000	879.00000	27233.00000
1645.22823	0.35262	0.44400	60778.06969	873.98452	27471.51572	1642.91804	0.44261	60849.00000	868.00000	27416.00000
1651.42258	0.34928	0.44742	59777.88214	914.49031	27251.01977	1649.10841	0.44623	60357.00000	896.00000	27429.00000
1657.61694	0.34682	0.44996	57642.70006	920.63108	26443.24774	1655.29878	0.44912	58452.00000	931.00000	26765.00000
1663.81129	0.34415	0.45274	56689.89176	898.36344	26158.03191	1661.48915	0.45150	56762.00000	897.00000	26120.00000
1670.00565	0.34083	0.45622	55553.85124	917.06266	25842.41733	1667.67952	0.45500	56404.00000	914.00000	26162.00000
1676.20000	0.33821	0.45897	52318.47966	879.24303	24489.17530	1673.86989	0.45798	53497.00000	901.00000	24989.00000
0.00000	0.00000	0.00000	0.00000	0.00000	0.00000	1680.06026	0.46053	50136.00000	860.00000	23553.00000
0.00000	0.00000	0.00000	0.00000	0.00000	0.00000	1686.25063	0.46239	46019.00000	923.00000	21775.00000
0.00000	0.00000	0.00000	0.00000	0.00000	0.00000	1692.44100	0.46239	46019.00000	923.00000	21775.00000
