'File 果珍_5_2016一月28_1131.xls
'Part ID 果珍_5
'Scan Created 2016/1/28 11:31:37
'Instrument S1-00205
'Version 1.5.7
'Integration Time 10100 s
'Number of Scans 50
'Units Absorbance
'Thermistor 49.04
Wavelength	Absorbance	Normalized	100%	dark	Raw 1	Native Wvl	Native Norm	Native 100%	Native dark	Native 1
908.10000	0.23869	0.57717	3595.82598	881.87120	2447.52166	906.26400	0.57061	3684.00000	880.00000	2480.00000
914.29435	0.22258	0.59899	3338.07467	866.26472	2347.07826	912.45437	0.59256	3404.00000	876.00000	2374.00000
920.48871	0.20466	0.62423	3265.72768	878.51909	2368.70091	918.64474	0.61577	3257.00000	860.00000	2336.00000
926.68306	0.18573	0.65203	3334.01990	918.74175	2493.46060	924.83511	0.64458	3324.00000	924.00000	2471.00000
932.87742	0.16917	0.67738	3389.36197	864.93184	2575.08123	931.02548	0.66895	3355.00000	875.00000	2534.00000
939.07177	0.15110	0.70616	3619.59224	884.95115	2816.03896	937.21585	0.69820	3537.00000	873.00000	2733.00000
945.26613	0.13849	0.72696	3856.44440	889.93616	3046.43546	943.40622	0.72157	3802.00000	900.00000	2994.00000
951.46048	0.13090	0.73978	4005.12223	859.91735	3186.67788	949.59659	0.73676	3955.00000	859.00000	3140.00000
957.65484	0.12830	0.74421	4215.51392	893.73656	3365.79011	955.78696	0.74379	4148.00000	885.00000	3312.00000
963.84919	0.12872	0.74350	4374.23623	878.43417	3477.59305	961.97733	0.74370	4344.00000	891.00000	3459.00000
970.04355	0.13070	0.74012	4523.41127	896.06510	3580.86580	968.16770	0.74204	4453.00000	871.00000	3529.00000
976.23790	0.14261	0.72010	4726.50938	925.04592	3662.16870	974.35807	0.72892	4693.00000	945.00000	3677.00000
982.43226	0.15680	0.69695	4835.26800	856.06452	3629.59304	980.54844	0.70056	4778.00000	854.00000	3603.00000
988.62661	0.15308	0.70294	5079.18703	905.14928	3839.24418	986.73881	0.69942	5013.00000	901.00000	3777.00000
994.82097	0.14633	0.71396	5288.13901	870.37131	4024.46847	992.92918	0.71142	5216.00000	881.00000	3965.00000
1001.01532	0.14506	0.71604	5547.24444	876.96250	4221.04836	999.11955	0.71627	5470.00000	867.00000	4164.00000
1007.20968	0.14630	0.71401	5821.73207	889.84005	4411.26150	1005.30992	0.71446	5729.00000	896.00000	4349.00000
1013.40403	0.14553	0.71527	6108.36987	875.33513	4618.33947	1011.50029	0.71440	6031.00000	870.00000	4557.00000
1019.59839	0.14323	0.71907	6349.51155	919.49996	4824.09123	1017.69066	0.71796	6269.00000	908.00000	4757.00000
1025.79274	0.14202	0.72108	6610.09178	908.88037	5019.83569	1023.88103	0.72075	6536.00000	921.00000	4968.00000
1031.98710	0.14104	0.72270	6863.27600	885.10537	5205.58863	1030.07140	0.72187	6776.00000	883.00000	5137.00000
1038.18145	0.13922	0.72574	7137.95533	879.30949	5421.34568	1036.26177	0.72496	7062.00000	892.00000	5365.00000
1044.37581	0.13750	0.72861	7415.45215	852.78191	5634.51556	1042.45214	0.72746	7313.00000	848.00000	5551.00000
1050.57016	0.13527	0.73237	7763.75520	889.74850	5923.98252	1048.64251	0.73142	7664.00000	884.00000	5843.00000
1056.76452	0.13393	0.73463	8043.98752	873.54577	6141.16343	1054.83288	0.73393	7958.00000	881.00000	6075.00000
1062.95887	0.13256	0.73696	8346.47029	875.55305	6381.29367	1061.02325	0.73624	8246.00000	868.00000	6300.00000
1069.15323	0.13144	0.73885	8651.05608	883.28349	6622.46924	1067.21362	0.73834	8564.00000	890.00000	6556.00000
1075.34758	0.13041	0.74061	8931.01237	859.29405	6837.31770	1073.40399	0.73997	8836.00000	860.00000	6762.00000
1081.54194	0.12915	0.74276	9243.78719	871.40916	7089.98264	1079.59436	0.74212	9149.00000	870.00000	7014.00000
1087.73629	0.12744	0.74569	9580.78777	901.76500	7373.64947	1085.78473	0.74449	9462.00000	883.00000	7270.00000
1093.93065	0.12532	0.74935	9940.76391	922.65990	7680.34220	1091.97510	0.74843	9841.00000	933.00000	7600.00000
1100.12500	0.12436	0.75100	10254.38783	869.25749	7917.44122	1098.16547	0.75059	10144.00000	878.00000	7833.00000
1106.31935	0.12336	0.75274	10641.04469	875.00467	8226.31106	1104.35584	0.75202	10519.00000	873.00000	8127.00000
1112.51371	0.12185	0.75535	11015.80766	872.41348	8534.19938	1110.54621	0.75456	10897.00000	874.00000	8437.00000
1118.70806	0.12126	0.75638	11401.60672	872.77123	8836.47916	1116.73658	0.75637	11276.00000	871.00000	8741.00000
1124.90242	0.12240	0.75439	11814.30888	885.70510	9130.27347	1122.92695	0.75535	11680.00000	881.00000	9038.00000
1131.09677	0.12621	0.74780	12236.17715	886.26842	9373.55542	1129.11732	0.75065	12103.00000	890.00000	9307.00000
1137.29113	0.13209	0.73775	12606.57558	854.95675	9524.88725	1135.30769	0.74078	12498.00000	867.00000	9483.00000
1143.48548	0.13730	0.72895	12995.31207	851.62722	9703.62351	1141.49806	0.73185	12851.00000	843.00000	9631.00000
1149.67984	0.14432	0.71726	13491.13514	894.93569	9929.85969	1147.68843	0.72163	13335.00000	884.00000	9869.00000
1155.87419	0.15567	0.69877	13953.07917	885.15852	10016.26194	1153.87880	0.70555	13805.00000	896.00000	10004.00000
1162.06855	0.16771	0.67965	14446.12872	862.12568	10094.75156	1160.06917	0.68480	14279.00000	862.00000	10050.00000
1168.26290	0.17526	0.66795	14959.02414	891.75197	10288.01457	1166.25954	0.67146	14800.00000	881.00000	10227.00000
1174.45726	0.18309	0.65600	15420.71473	898.79570	10425.08114	1172.44991	0.66019	15273.00000	903.00000	10390.00000
1180.65161	0.19157	0.64332	15876.41905	861.08105	10520.90015	1178.64028	0.64714	15728.00000	875.00000	10487.00000
1186.84597	0.19903	0.63238	16371.22020	852.06070	10665.81465	1184.83065	0.63595	16201.00000	846.00000	10611.00000
1193.04032	0.20428	0.62477	16894.18264	880.38932	10885.46543	1191.02102	0.62630	16730.00000	875.00000	10805.00000
1199.23468	0.20402	0.62514	17400.55626	883.09277	11208.98827	1197.21139	0.62440	17229.00000	882.00000	11089.00000
1205.42903	0.20233	0.62758	17922.85290	876.52702	11574.27655	1203.40176	0.62704	17758.00000	882.00000	11464.00000
1211.62339	0.20070	0.62994	18412.23826	867.41129	11919.82530	1209.59213	0.62874	18250.00000	866.00000	11796.00000
1217.81774	0.19734	0.63484	18946.64823	877.09601	12348.23972	1215.78250	0.63325	18763.00000	876.00000	12203.00000
1224.01210	0.19357	0.64037	19522.38589	879.59709	12817.91422	1221.97287	0.63829	19334.00000	877.00000	12658.00000
1230.20645	0.18977	0.64600	20046.82356	877.27220	13260.67656	1228.16324	0.64451	19884.00000	882.00000	13129.00000
1236.40081	0.18858	0.64777	20578.92550	894.33634	13645.38789	1234.35361	0.64760	20387.00000	878.00000	13512.00000
1242.59516	0.18892	0.64727	21116.97255	904.50586	13987.33988	1240.54398	0.64746	20962.00000	919.00000	13896.00000
1248.78952	0.18874	0.64753	21555.61107	852.78714	14258.37281	1246.73435	0.64724	21399.00000	858.00000	14153.00000
1254.98387	0.18750	0.64939	22112.97196	897.03001	14674.45459	1252.92472	0.64865	21917.00000	878.00000	14525.00000
1261.17823	0.18721	0.64982	22669.33634	902.45329	15046.81255	1259.11509	0.65019	22498.00000	915.00000	14948.00000
1267.37258	0.18886	0.64735	23144.86310	840.51764	15279.15563	1265.30546	0.64814	22985.00000	857.00000	15199.00000
1273.56694	0.18858	0.64777	23720.39347	860.92978	15668.67903	1271.49583	0.64699	23506.00000	841.00000	15505.00000
1279.76129	0.18539	0.65254	24372.77955	913.59084	16221.58885	1277.68620	0.65073	24166.00000	906.00000	16042.00000
1285.95565	0.18147	0.65846	24945.52650	893.87771	16730.98264	1283.87657	0.65641	24754.00000	903.00000	16559.00000
1292.15000	0.17764	0.66429	25532.41484	877.59600	17255.60933	1290.06694	0.66244	25332.00000	880.00000	17078.00000
1298.34435	0.17459	0.66897	26175.67024	884.75253	17803.72110	1296.25731	0.66754	25949.00000	881.00000	17615.00000
1304.53871	0.17309	0.67128	26805.92834	868.00311	18279.60524	1302.44769	0.67092	26610.00000	881.00000	18143.00000
1310.73306	0.17329	0.67098	27432.03993	867.23944	18691.87106	1308.63806	0.67118	27196.00000	853.00000	18534.00000
1316.92742	0.17421	0.66955	28161.82657	892.73544	19150.81476	1314.82843	0.67024	27925.00000	899.00000	19013.00000
1323.12177	0.17642	0.66617	28842.74169	862.95220	19502.25979	1321.01880	0.66754	28606.00000	864.00000	19383.00000
1329.31613	0.18046	0.65999	29519.54369	871.94640	19779.15140	1327.20917	0.66253	29300.00000	874.00000	19707.00000
1335.51048	0.18702	0.65009	30183.25265	863.66515	19924.11190	1333.39954	0.65384	29944.00000	862.00000	19877.00000
1341.70484	0.19597	0.63684	30926.51890	893.32929	20019.43956	1339.58991	0.64175	30673.00000	881.00000	20000.00000
1347.89919	0.20714	0.62066	31587.63481	894.88004	19944.89679	1345.78028	0.62643	31380.00000	904.00000	19995.00000
1354.09355	0.21916	0.60373	32227.78710	859.30420	19797.17712	1351.97065	0.60943	31988.00000	867.00000	19833.00000
1360.28790	0.23006	0.58877	32929.95072	867.11433	19744.96142	1358.16102	0.59357	32704.00000	861.00000	19762.00000
1366.48226	0.23975	0.57577	33569.06337	866.55753	19695.33522	1364.35139	0.58017	33341.00000	873.00000	19710.00000
1372.67661	0.24717	0.56601	34261.83351	843.87902	19759.05710	1370.54176	0.56857	34024.00000	848.00000	19711.00000
1378.87097	0.24912	0.56349	34838.67465	870.52277	20011.18509	1376.73213	0.56363	34668.00000	855.00000	19913.00000
1385.06532	0.24843	0.56437	35121.03064	877.10458	20203.43010	1382.92250	0.56413	35059.00000	888.00000	20165.00000
1391.25968	0.24879	0.56391	35289.43299	872.38486	20280.45470	1389.11287	0.56427	35214.00000	858.00000	20244.00000
1397.45403	0.25125	0.56073	35460.60298	899.47130	20278.89735	1395.30324	0.56230	35427.00000	906.00000	20317.00000
1403.64839	0.25764	0.55253	35666.10671	869.36576	20095.85384	1401.49361	0.55608	35545.00000	870.00000	20152.00000
1409.84274	0.27014	0.53685	36323.03255	883.09719	19909.07869	1407.68398	0.54335	36050.00000	883.00000	19991.00000
1416.03710	0.28966	0.51327	37284.68636	884.03189	19566.98873	1413.87435	0.52218	36926.00000	879.00000	19702.00000
1422.23145	0.31427	0.48498	38329.42739	892.53935	19049.55580	1420.06472	0.49527	37970.00000	895.00000	19257.00000
1428.42581	0.34456	0.45232	39434.74114	878.71439	18316.82355	1426.25509	0.46436	39022.00000	881.00000	18592.00000
1434.62016	0.37272	0.42391	40575.07439	880.06733	17707.88679	1432.44546	0.43188	40203.00000	880.00000	17863.00000
1440.81452	0.37903	0.41780	41493.68414	879.47622	17848.27160	1438.63583	0.41702	41184.00000	879.00000	17687.00000
1447.00887	0.36796	0.42859	42510.04768	905.41306	18737.19756	1444.82620	0.42431	42113.00000	891.00000	18382.00000
1453.20323	0.35963	0.43689	43543.72896	892.86717	19526.07900	1451.01657	0.43500	43229.00000	914.00000	19321.00000
1459.39758	0.35936	0.43716	44405.02794	864.61268	19898.93594	1457.20694	0.43770	44070.00000	855.00000	19770.00000
1465.59194	0.36327	0.43324	45481.34063	906.97918	20218.18927	1463.39731	0.43495	45094.00000	903.00000	20124.00000
1471.78629	0.36850	0.42806	46480.51435	890.87025	20406.04655	1469.58768	0.42982	46150.00000	894.00000	20346.00000
1477.98065	0.37287	0.42377	47320.91755	868.50781	20553.73258	1475.77805	0.42519	47029.00000	883.00000	20504.00000
1484.17500	0.37615	0.42058	48225.65661	857.63729	20779.78121	1481.96842	0.42156	47881.00000	849.00000	20676.00000
1490.36935	0.37860	0.41822	49092.30051	893.89890	21051.42141	1488.15879	0.41905	48824.00000	887.00000	20975.00000
1496.56371	0.38067	0.41622	49778.04514	887.35808	21236.74185	1494.34916	0.41684	49521.00000	891.00000	21162.00000
1502.75806	0.38201	0.41495	50469.48096	863.36996	21447.34197	1500.53953	0.41535	50241.00000	875.00000	21379.00000
1508.95242	0.38270	0.41429	51158.04064	897.54966	21719.89472	1506.72990	0.41444	50884.00000	867.00000	21596.00000
1515.14677	0.38341	0.41360	51878.91086	902.58342	21986.54542	1512.92027	0.41396	51650.00000	933.00000	21928.00000
1521.34113	0.38408	0.41297	52577.57434	850.45197	22212.30963	1519.11064	0.41302	52288.00000	838.00000	22088.00000
1527.53548	0.38392	0.41313	53324.26188	911.75147	22564.60484	1525.30101	0.41312	53098.00000	907.00000	22468.00000
1533.72984	0.38357	0.41346	53919.19306	885.74627	22812.80970	1531.49138	0.41320	53680.00000	890.00000	22703.00000
1539.92419	0.38247	0.41451	54593.00479	874.24673	23140.99590	1537.68175	0.41413	54367.00000	884.00000	23033.00000
1546.11855	0.38149	0.41544	55208.54831	866.87961	23442.76051	1543.87212	0.41511	54973.00000	860.00000	23323.00000
1552.31290	0.38092	0.41598	55811.51925	888.84465	23735.73219	1550.06249	0.41588	55614.00000	887.00000	23647.00000
1558.50726	0.38124	0.41568	56431.29012	888.46797	23976.72795	1556.25286	0.41588	56172.00000	885.00000	23878.00000
1564.70161	0.38254	0.41444	57011.94896	890.80855	24149.77758	1562.44323	0.41502	56858.00000	895.00000	24121.00000
1570.89597	0.38438	0.41269	57413.89650	869.93991	24204.94009	1568.63360	0.41329	57231.00000	876.00000	24167.00000
1577.09032	0.38576	0.41138	57979.03512	879.44141	24369.17763	1574.82397	0.41181	57786.00000	871.00000	24309.00000
1583.28468	0.38670	0.41049	58450.11400	894.72676	24520.70946	1581.01434	0.41077	58279.00000	894.00000	24466.00000
1589.47903	0.38672	0.41047	58825.25008	895.18773	24673.66991	1587.20471	0.41031	58712.00000	892.00000	24616.00000
1595.67339	0.38516	0.41195	59146.72764	885.70009	24886.21214	1593.39508	0.41123	59009.00000	896.00000	24794.00000
1601.86774	0.38198	0.41497	59574.82387	893.37146	25244.59750	1599.58545	0.41367	59419.00000	877.00000	25094.00000
1608.06210	0.37768	0.41910	59920.72690	909.46488	25641.28210	1605.77582	0.41753	59809.00000	920.00000	25508.00000
1614.25645	0.37292	0.42372	60220.95853	887.30010	26028.18162	1611.96619	0.42194	60102.00000	882.00000	25869.00000
1620.45081	0.36800	0.42855	60438.83040	897.12192	26413.77128	1618.15656	0.42681	60391.00000	905.00000	26294.00000
1626.64516	0.36309	0.43342	60579.30309	884.35356	26757.14525	1624.34693	0.43154	60502.00000	878.00000	26608.00000
1632.83952	0.35806	0.43847	60848.95373	899.57786	27185.85894	1630.53730	0.43665	60754.00000	903.00000	27037.00000
1639.03387	0.35360	0.44299	60928.35809	870.27700	27475.44462	1636.72767	0.44137	60938.00000	879.00000	27387.00000
1645.22823	0.34960	0.44710	60778.06969	873.98452	27657.18524	1642.91804	0.44561	60849.00000	868.00000	27596.00000
1651.42258	0.34593	0.45089	59777.88214	914.49031	27455.00990	1649.10841	0.44950	60357.00000	896.00000	27624.00000
1657.61694	0.34277	0.45419	57642.70006	920.63108	26682.71060	1655.29878	0.45303	58452.00000	931.00000	26990.00000
1663.81129	0.33973	0.45737	56689.89176	898.36344	26416.93265	1661.48915	0.45610	56762.00000	897.00000	26377.00000
1670.00565	0.33628	0.46102	55553.85124	917.06266	26104.71064	1667.67952	0.45965	56404.00000	914.00000	26420.00000
1676.20000	0.33321	0.46429	52318.47966	879.24303	24762.81963	1673.86989	0.46315	53497.00000	901.00000	25261.00000
0.00000	0.00000	0.00000	0.00000	0.00000	0.00000	1680.06026	0.46595	50136.00000	860.00000	23820.00000
0.00000	0.00000	0.00000	0.00000	0.00000	0.00000	1686.25063	0.46782	46019.00000	923.00000	22020.00000
0.00000	0.00000	0.00000	0.00000	0.00000	0.00000	1692.44100	0.46782	46019.00000	923.00000	22020.00000
