'File 果珍_1_2016一月28_1131.xls
'Part ID 果珍_1
'Scan Created 2016/1/28 11:31:22
'Instrument S1-00205
'Version 1.5.7
'Integration Time 10100 s
'Number of Scans 50
'Units Absorbance
'Thermistor 49.04
Wavelength	Absorbance	Normalized	100%	dark	Raw 1	Native Wvl	Native Norm	Native 100%	Native dark	Native 1
908.10000	0.22383	0.59726	3595.82598	881.87120	2502.17546	906.26400	0.59165	3684.00000	880.00000	2539.00000
914.29435	0.20995	0.61666	3338.07467	866.26472	2390.71861	912.45437	0.61076	3404.00000	876.00000	2420.00000
920.48871	0.19357	0.64037	3265.72768	878.51909	2407.24716	918.64474	0.63246	3257.00000	860.00000	2376.00000
926.68306	0.17657	0.66593	3334.01990	918.74175	2527.04637	924.83511	0.65917	3324.00000	924.00000	2506.00000
932.87742	0.16206	0.68856	3389.36197	864.93184	2603.23551	931.02548	0.68105	3355.00000	875.00000	2564.00000
939.07177	0.14553	0.71526	3619.59224	884.95115	2840.99858	937.21585	0.70758	3537.00000	873.00000	2758.00000
945.26613	0.13376	0.73492	3856.44440	889.93616	3069.99739	943.40622	0.73019	3802.00000	900.00000	3019.00000
951.46048	0.12754	0.74552	4005.12223	859.91735	3204.76145	949.59659	0.74289	3955.00000	859.00000	3159.00000
957.65484	0.12476	0.75031	4215.51392	893.73656	3386.05839	955.78696	0.74962	4148.00000	885.00000	3331.00000
963.84919	0.12483	0.75018	4374.23623	878.43417	3500.93115	961.97733	0.75036	4344.00000	891.00000	3482.00000
970.04355	0.12698	0.74649	4523.41127	896.06510	3603.96784	968.16770	0.74846	4453.00000	871.00000	3552.00000
976.23790	0.13804	0.72771	4726.50938	925.04592	3691.12223	974.35807	0.73586	4693.00000	945.00000	3703.00000
982.43226	0.15063	0.70692	4835.26800	856.06452	3669.25613	980.54844	0.70999	4778.00000	854.00000	3640.00000
988.62661	0.14702	0.71283	5079.18703	905.14928	3880.48430	986.73881	0.70963	5013.00000	901.00000	3819.00000
994.82097	0.14124	0.72237	5288.13901	870.37131	4061.61177	992.92918	0.72018	5216.00000	881.00000	4003.00000
1001.01532	0.13995	0.72453	5547.24444	876.96250	4260.72354	999.11955	0.72453	5470.00000	867.00000	4202.00000
1007.20968	0.14103	0.72271	5821.73207	889.84005	4454.10187	1005.30992	0.72336	5729.00000	896.00000	4392.00000
1013.40403	0.14054	0.72353	6108.36987	875.33513	4661.63683	1011.50029	0.72253	6031.00000	870.00000	4599.00000
1019.59839	0.13803	0.72772	6349.51155	919.49996	4871.04688	1017.69066	0.72673	6269.00000	908.00000	4804.00000
1025.79274	0.13753	0.72857	6610.09178	908.88037	5062.54291	1023.88103	0.72858	6536.00000	921.00000	5012.00000
1031.98710	0.13674	0.72989	6863.27600	885.10537	5248.60932	1030.07140	0.72900	6776.00000	883.00000	5179.00000
1038.18145	0.13480	0.73317	7137.95533	879.30949	5467.84255	1036.26177	0.73241	7062.00000	892.00000	5411.00000
1044.37581	0.13338	0.73557	7415.45215	852.78191	5680.16073	1042.45214	0.73457	7313.00000	848.00000	5597.00000
1050.57016	0.13143	0.73887	7763.75520	889.74850	5968.71213	1048.64251	0.73805	7664.00000	884.00000	5888.00000
1056.76452	0.13035	0.74071	8043.98752	873.54577	6184.76164	1054.83288	0.74014	7958.00000	881.00000	6119.00000
1062.95887	0.12900	0.74301	8346.47029	875.55305	6426.59158	1061.02325	0.74221	8246.00000	868.00000	6344.00000
1069.15323	0.12801	0.74472	8651.05608	883.28349	6668.03383	1067.21362	0.74446	8564.00000	890.00000	6603.00000
1075.34758	0.12732	0.74590	8931.01237	859.29405	6880.07913	1073.40399	0.74524	8836.00000	860.00000	6804.00000
1081.54194	0.12582	0.74848	9243.78719	871.40916	7137.87021	1079.59436	0.74780	9149.00000	870.00000	7061.00000
1087.73629	0.12437	0.75098	9580.78777	901.76500	7419.62920	1085.78473	0.74997	9462.00000	883.00000	7317.00000
1093.93065	0.12252	0.75419	9940.76391	922.65990	7723.99089	1091.97510	0.75337	9841.00000	933.00000	7644.00000
1100.12500	0.12163	0.75573	10254.38783	869.25749	7961.89353	1098.16547	0.75534	10144.00000	878.00000	7877.00000
1106.31935	0.12059	0.75755	10641.04469	875.00467	8273.29243	1104.35584	0.75679	10519.00000	873.00000	8173.00000
1112.51371	0.11918	0.76001	11015.80766	872.41348	8581.49723	1110.54621	0.75935	10897.00000	874.00000	8485.00000
1118.70806	0.11871	0.76083	11401.60672	872.77123	8883.44842	1116.73658	0.76079	11276.00000	871.00000	8787.00000
1124.90242	0.11964	0.75921	11814.30888	885.70510	9182.90609	1122.92695	0.76007	11680.00000	881.00000	9089.00000
1131.09677	0.12313	0.75313	12236.17715	886.26842	9434.02680	1129.11732	0.75573	12103.00000	890.00000	9364.00000
1137.29113	0.12860	0.74371	12606.57558	854.95675	9594.88381	1135.30769	0.74663	12498.00000	867.00000	9551.00000
1143.48548	0.13351	0.73535	12995.31207	851.62722	9781.42857	1141.49806	0.73801	12851.00000	843.00000	9705.00000
1149.67984	0.13980	0.72478	13491.13514	894.93569	10024.49486	1147.68843	0.72878	13335.00000	884.00000	9958.00000
1155.87419	0.15019	0.70763	13953.07917	885.15852	10132.07817	1153.87880	0.71392	13805.00000	896.00000	10112.00000
1162.06855	0.16106	0.69014	14446.12872	862.12568	10237.25260	1160.06917	0.69479	14279.00000	862.00000	10184.00000
1168.26290	0.16775	0.67960	14959.02414	891.75197	10451.87527	1166.25954	0.68281	14800.00000	881.00000	10385.00000
1174.45726	0.17482	0.66863	15420.71473	898.79570	10608.43476	1172.44991	0.67244	15273.00000	903.00000	10566.00000
1180.65161	0.18235	0.65712	15876.41905	861.08105	10728.10553	1178.64028	0.66061	15728.00000	875.00000	10687.00000
1186.84597	0.18896	0.64720	16371.22020	852.06070	10895.94773	1184.83065	0.65041	16201.00000	846.00000	10833.00000
1193.04032	0.19360	0.64032	16894.18264	880.38932	11134.40103	1191.02102	0.64175	16730.00000	875.00000	11050.00000
1199.23468	0.19351	0.64045	17400.55626	883.09277	11461.79999	1197.21139	0.63981	17229.00000	882.00000	11341.00000
1205.42903	0.19195	0.64277	17922.85290	876.52702	11833.16342	1203.40176	0.64221	17758.00000	882.00000	11720.00000
1211.62339	0.19044	0.64500	18412.23826	867.41129	12184.01275	1209.59213	0.64393	18250.00000	866.00000	12060.00000
1217.81774	0.18764	0.64917	18946.64823	877.09601	12607.28007	1215.78250	0.64784	18763.00000	876.00000	12464.00000
1224.01210	0.18438	0.65406	19522.38589	879.59709	13073.23982	1221.97287	0.65216	19334.00000	877.00000	12914.00000
1230.20645	0.18092	0.65929	20046.82356	877.27220	13515.60274	1228.16324	0.65793	19884.00000	882.00000	13384.00000
1236.40081	0.17997	0.66074	20578.92550	894.33634	13900.76810	1234.35361	0.66067	20387.00000	878.00000	13767.00000
1242.59516	0.18035	0.66016	21116.97255	904.50586	14247.93158	1240.54398	0.66033	20962.00000	919.00000	14154.00000
1248.78952	0.18016	0.66044	21555.61107	852.78714	14525.80774	1246.73435	0.66019	21399.00000	858.00000	14419.00000
1254.98387	0.17914	0.66201	22112.97196	897.03001	14942.27619	1252.92472	0.66139	21917.00000	878.00000	14793.00000
1261.17823	0.17896	0.66228	22669.33634	902.45329	15318.08786	1259.11509	0.66265	22498.00000	915.00000	15217.00000
1267.37258	0.18048	0.65997	23144.86310	840.51764	15560.57022	1265.30546	0.66070	22985.00000	857.00000	15477.00000
1273.56694	0.18026	0.66030	23720.39347	860.92978	15955.09999	1271.49583	0.65961	23506.00000	841.00000	15791.00000
1279.76129	0.17747	0.66455	24372.77955	913.59084	16503.33097	1277.68620	0.66294	24166.00000	906.00000	16326.00000
1285.95565	0.17399	0.66990	24945.52650	893.87771	17006.07997	1283.87657	0.66802	24754.00000	903.00000	16836.00000
1292.15000	0.17059	0.67516	25532.41484	877.59600	17523.56479	1290.06694	0.67352	25332.00000	880.00000	17349.00000
1298.34435	0.16796	0.67926	26175.67024	884.75253	18064.02267	1296.25731	0.67800	25949.00000	881.00000	17877.00000
1304.53871	0.16663	0.68135	26805.92834	868.00311	18540.71381	1302.44769	0.68102	26610.00000	881.00000	18403.00000
1310.73306	0.16682	0.68106	27432.03993	867.23944	18959.46322	1308.63806	0.68124	27196.00000	853.00000	18799.00000
1316.92742	0.16765	0.67975	28161.82657	892.73544	19428.93149	1314.82843	0.68038	27925.00000	899.00000	19287.00000
1323.12177	0.16967	0.67660	28842.74169	862.95220	19793.96331	1321.01880	0.67789	28606.00000	864.00000	19670.00000
1329.31613	0.17332	0.67093	29519.54369	871.94640	20092.62293	1327.20917	0.67322	29300.00000	874.00000	20011.00000
1335.51048	0.17916	0.66197	30183.25265	863.66515	20272.46744	1333.39954	0.66539	29944.00000	862.00000	20213.00000
1341.70484	0.18718	0.64987	30926.51890	893.32929	20410.87265	1339.58991	0.65434	30673.00000	881.00000	20375.00000
1347.89919	0.19708	0.63521	31587.63481	894.88004	20391.40542	1345.78028	0.64044	31380.00000	904.00000	20422.00000
1354.09355	0.20766	0.61992	32227.78710	859.30420	20305.00154	1351.97065	0.62504	31988.00000	867.00000	20319.00000
1360.28790	0.21722	0.60642	32929.95072	867.11433	20311.08954	1358.16102	0.61078	32704.00000	861.00000	20310.00000
1366.48226	0.22579	0.59458	33569.06337	866.55753	20310.50673	1364.35139	0.59859	33341.00000	873.00000	20308.00000
1372.67661	0.23241	0.58558	34261.83351	843.87902	20412.96096	1370.54176	0.58799	34024.00000	848.00000	20355.00000
1378.87097	0.23436	0.58297	34838.67465	870.52277	20672.87507	1376.73213	0.58321	34668.00000	855.00000	20575.00000
1385.06532	0.23386	0.58363	35121.03064	877.10458	20862.97767	1382.92250	0.58342	35059.00000	888.00000	20824.00000
1391.25968	0.23412	0.58329	35289.43299	872.38486	20947.45256	1389.11287	0.58360	35214.00000	858.00000	20908.00000
1397.45403	0.23623	0.58045	35460.60298	899.47130	20960.59859	1395.30324	0.58185	35427.00000	906.00000	20992.00000
1403.64839	0.24171	0.57318	35666.10671	869.36576	20814.11083	1401.49361	0.57632	35545.00000	870.00000	20854.00000
1409.84274	0.25251	0.55910	36323.03255	883.09719	20697.59031	1407.68398	0.56496	36050.00000	883.00000	20751.00000
1416.03710	0.26938	0.53780	37284.68636	884.03189	20460.13256	1413.87435	0.54584	36926.00000	879.00000	20555.00000
1422.23145	0.29063	0.51212	38329.42739	892.53935	20065.56136	1420.06472	0.52151	37970.00000	895.00000	20230.00000
1428.42581	0.31713	0.48181	39434.74114	878.71439	19453.98965	1426.25509	0.49307	39022.00000	881.00000	19687.00000
1434.62016	0.34193	0.45506	40575.07439	880.06733	18944.10822	1432.44546	0.46258	40203.00000	880.00000	19070.00000
1440.81452	0.34733	0.44943	41493.68414	879.47622	19132.94323	1438.63583	0.44860	41184.00000	879.00000	18960.00000
1447.00887	0.33730	0.45994	42510.04768	905.41306	20041.58242	1444.82620	0.45580	42113.00000	891.00000	19680.00000
1453.20323	0.32986	0.46788	43543.72896	892.86717	20848.13014	1451.01657	0.46610	43229.00000	914.00000	20637.00000
1459.39758	0.32966	0.46810	44405.02794	864.61268	21246.08021	1457.20694	0.46861	44070.00000	855.00000	21106.00000
1465.59194	0.33306	0.46445	45481.34063	906.97918	21609.56477	1463.39731	0.46605	45094.00000	903.00000	21498.00000
1471.78629	0.33767	0.45955	46480.51435	890.87025	21841.56796	1469.58768	0.46124	46150.00000	894.00000	21768.00000
1477.98065	0.34165	0.45536	47320.91755	868.50781	22020.82525	1475.77805	0.45675	47029.00000	883.00000	21960.00000
1484.17500	0.34468	0.45219	48225.65661	857.63729	22277.17391	1481.96842	0.45318	47881.00000	849.00000	22163.00000
1490.36935	0.34689	0.44990	49092.30051	893.89890	22578.20172	1488.15879	0.45067	48824.00000	887.00000	22491.00000
1496.56371	0.34878	0.44794	49778.04514	887.35808	22787.40005	1494.34916	0.44859	49521.00000	891.00000	22706.00000
1502.75806	0.35017	0.44651	50469.48096	863.36996	23013.17639	1500.53953	0.44695	50241.00000	875.00000	22939.00000
1508.95242	0.35083	0.44583	51158.04064	897.54966	23305.32021	1506.72990	0.44599	50884.00000	867.00000	23174.00000
1515.14677	0.35148	0.44517	51878.91086	902.58342	23595.50527	1512.92027	0.44551	51650.00000	933.00000	23528.00000
1521.34113	0.35218	0.44445	52577.57434	850.45197	23840.47097	1519.11064	0.44457	52288.00000	838.00000	23711.00000
1527.53548	0.35217	0.44446	53324.26188	911.75147	24206.76362	1525.30101	0.44446	53098.00000	907.00000	24104.00000
1533.72984	0.35184	0.44479	53919.19306	885.74627	24474.63809	1531.49138	0.44455	53680.00000	890.00000	24358.00000
1539.92419	0.35094	0.44572	54593.00479	874.24673	24817.69343	1537.68175	0.44539	54367.00000	884.00000	24705.00000
1546.11855	0.35012	0.44656	55208.54831	866.87961	25133.54928	1543.87212	0.44625	54973.00000	860.00000	25008.00000
1552.31290	0.34961	0.44709	55811.51925	888.84465	25443.97976	1550.06249	0.44698	55614.00000	887.00000	25349.00000
1558.50726	0.34989	0.44679	56431.29012	888.46797	25704.56769	1556.25286	0.44699	56172.00000	885.00000	25598.00000
1564.70161	0.35113	0.44552	57011.94896	890.80855	25893.99545	1562.44323	0.44612	56858.00000	895.00000	25861.00000
1570.89597	0.35280	0.44382	57413.89650	869.93991	25964.98194	1568.63360	0.44438	57231.00000	876.00000	25919.00000
1577.09032	0.35403	0.44256	57979.03512	879.44141	26149.45196	1574.82397	0.44299	57786.00000	871.00000	26084.00000
1583.28468	0.35498	0.44159	58450.11400	894.72676	26310.61925	1581.01434	0.44189	58279.00000	894.00000	26252.00000
1589.47903	0.35507	0.44150	58825.25008	895.18773	26471.10720	1587.20471	0.44137	58712.00000	892.00000	26412.00000
1595.67339	0.35377	0.44282	59146.72764	885.70009	26684.93098	1593.39508	0.44217	59009.00000	896.00000	26592.00000
1601.86774	0.35101	0.44564	59574.82387	893.37146	27044.39959	1599.58545	0.44442	59419.00000	877.00000	26894.00000
1608.06210	0.34731	0.44946	59920.72690	909.46488	27432.53499	1605.77582	0.44803	59809.00000	920.00000	27304.00000
1614.25645	0.34321	0.45373	60220.95853	887.30010	27808.55231	1611.96619	0.45204	60102.00000	882.00000	27652.00000
1620.45081	0.33890	0.45825	60438.83040	897.12192	28181.86424	1618.15656	0.45665	60391.00000	905.00000	28069.00000
1626.64516	0.33471	0.46269	60579.30309	884.35356	28504.71239	1624.34693	0.46096	60502.00000	878.00000	28362.00000
1632.83952	0.33036	0.46735	60848.95373	899.57786	28916.89568	1630.53730	0.46569	60754.00000	903.00000	28775.00000
1639.03387	0.32654	0.47148	60928.35809	870.27700	29186.10843	1636.72767	0.46997	60938.00000	879.00000	29105.00000
1645.22823	0.32304	0.47529	60778.06969	873.98452	29346.00658	1642.91804	0.47392	60849.00000	868.00000	29294.00000
1651.42258	0.31993	0.47871	59777.88214	914.49031	29092.82965	1649.10841	0.47747	60357.00000	896.00000	29287.00000
1657.61694	0.31726	0.48166	57642.70006	920.63108	28240.88517	1655.29878	0.48062	58452.00000	931.00000	28577.00000
1663.81129	0.31455	0.48467	56689.89176	898.36344	27939.82266	1661.48915	0.48343	56762.00000	897.00000	27904.00000
1670.00565	0.31148	0.48811	55553.85124	917.06266	27585.12345	1667.67952	0.48686	56404.00000	914.00000	27930.00000
1676.20000	0.30872	0.49122	52318.47966	879.24303	26148.31522	1673.86989	0.49008	53497.00000	901.00000	26677.00000
0.00000	0.00000	0.00000	0.00000	0.00000	0.00000	1680.06026	0.49306	50136.00000	860.00000	25156.00000
0.00000	0.00000	0.00000	0.00000	0.00000	0.00000	1686.25063	0.49525	46019.00000	923.00000	23257.00000
0.00000	0.00000	0.00000	0.00000	0.00000	0.00000	1692.44100	0.49525	46019.00000	923.00000	23257.00000
