'File 果珍_2_2016一月28_1131.xls
'Part ID 果珍_2
'Scan Created 2016/1/28 11:31:26
'Instrument S1-00205
'Version 1.5.7
'Integration Time 10100 s
'Number of Scans 50
'Units Absorbance
'Thermistor 49.04
Wavelength	Absorbance	Normalized	100%	dark	Raw 1	Native Wvl	Native Norm	Native 100%	Native dark	Native 1
908.10000	0.22407	0.59693	3595.82598	881.87120	2501.27293	906.26400	0.59130	3684.00000	880.00000	2538.00000
914.29435	0.21032	0.61614	3338.07467	866.26472	2389.42993	912.45437	0.61036	3404.00000	876.00000	2419.00000
920.48871	0.19415	0.63952	3265.72768	878.51909	2405.20006	918.64474	0.63162	3257.00000	860.00000	2374.00000
926.68306	0.17716	0.66504	3334.01990	918.74175	2524.86989	924.83511	0.65833	3324.00000	924.00000	2504.00000
932.87742	0.16236	0.68808	3389.36197	864.93184	2602.07050	931.02548	0.68024	3355.00000	875.00000	2562.00000
939.07177	0.14526	0.71571	3619.59224	884.95115	2842.17276	937.21585	0.70796	3537.00000	873.00000	2759.00000
945.26613	0.13347	0.73541	3856.44440	889.93616	3071.48897	943.40622	0.73053	3802.00000	900.00000	3020.00000
951.46048	0.12697	0.74650	4005.12223	859.91735	3207.82944	949.59659	0.74386	3955.00000	859.00000	3162.00000
957.65484	0.12451	0.75073	4215.51392	893.73656	3387.46150	955.78696	0.75023	4148.00000	885.00000	3333.00000
963.84919	0.12458	0.75062	4374.23623	878.43417	3502.49700	961.97733	0.75065	4344.00000	891.00000	3483.00000
970.04355	0.12686	0.74670	4523.41127	896.06510	3604.65403	968.16770	0.74902	4453.00000	871.00000	3554.00000
976.23790	0.13822	0.72742	4726.50938	925.04592	3690.07048	974.35807	0.73533	4693.00000	945.00000	3701.00000
982.43226	0.15042	0.70726	4835.26800	856.06452	3670.54270	980.54844	0.71050	4778.00000	854.00000	3642.00000
988.62661	0.14731	0.71235	5079.18703	905.14928	3878.55979	986.73881	0.70914	5013.00000	901.00000	3817.00000
994.82097	0.14123	0.72238	5288.13901	870.37131	4061.61440	992.92918	0.72018	5216.00000	881.00000	4003.00000
1001.01532	0.14005	0.72434	5547.24444	876.96250	4259.88465	999.11955	0.72431	5470.00000	867.00000	4201.00000
1007.20968	0.14079	0.72311	5821.73207	889.84005	4456.10525	1005.30992	0.72357	5729.00000	896.00000	4393.00000
1013.40403	0.14052	0.72357	6108.36987	875.33513	4661.79166	1011.50029	0.72292	6031.00000	870.00000	4601.00000
1019.59839	0.13821	0.72743	6349.51155	919.49996	4869.55794	1017.69066	0.72617	6269.00000	908.00000	4801.00000
1025.79274	0.13705	0.72937	6610.09178	908.88037	5067.03062	1023.88103	0.72930	6536.00000	921.00000	5016.00000
1031.98710	0.13644	0.73040	6863.27600	885.10537	5251.70777	1030.07140	0.72951	6776.00000	883.00000	5182.00000
1038.18145	0.13446	0.73374	7137.95533	879.30949	5471.38641	1036.26177	0.73306	7062.00000	892.00000	5415.00000
1044.37581	0.13319	0.73589	7415.45215	852.78191	5682.29985	1042.45214	0.73488	7313.00000	848.00000	5599.00000
1050.57016	0.13101	0.73959	7763.75520	889.74850	5973.65380	1048.64251	0.73864	7664.00000	884.00000	5892.00000
1056.76452	0.12989	0.74151	8043.98752	873.54577	6190.46978	1054.83288	0.74099	7958.00000	881.00000	6125.00000
1062.95887	0.12875	0.74344	8346.47029	875.55305	6429.79769	1061.02325	0.74275	8246.00000	868.00000	6348.00000
1069.15323	0.12770	0.74524	8651.05608	883.28349	6672.10654	1067.21362	0.74485	8564.00000	890.00000	6606.00000
1075.34758	0.12678	0.74683	8931.01237	859.29405	6887.59965	1073.40399	0.74611	8836.00000	860.00000	6811.00000
1081.54194	0.12537	0.74926	9243.78719	871.40916	7144.38927	1079.59436	0.74864	9149.00000	870.00000	7068.00000
1087.73629	0.12395	0.75170	9580.78777	901.76500	7425.88545	1085.78473	0.75067	9462.00000	883.00000	7323.00000
1093.93065	0.12207	0.75496	9940.76391	922.65990	7730.94981	1091.97510	0.75415	9841.00000	933.00000	7651.00000
1100.12500	0.12116	0.75655	10254.38783	869.25749	7969.54535	1098.16547	0.75610	10144.00000	878.00000	7884.00000
1106.31935	0.12007	0.75845	10641.04469	875.00467	8282.06744	1104.35584	0.75772	10519.00000	873.00000	8182.00000
1112.51371	0.11870	0.76085	11015.80766	872.41348	8589.98277	1110.54621	0.76015	10897.00000	874.00000	8493.00000
1118.70806	0.11817	0.76178	11401.60672	872.77123	8893.36927	1116.73658	0.76175	11276.00000	871.00000	8797.00000
1124.90242	0.11929	0.75982	11814.30888	885.70510	9189.58039	1122.92695	0.76081	11680.00000	881.00000	9097.00000
1131.09677	0.12297	0.75341	12236.17715	886.26842	9437.24839	1129.11732	0.75609	12103.00000	890.00000	9368.00000
1137.29113	0.12831	0.74421	12606.57558	854.95675	9600.75269	1135.30769	0.74697	12498.00000	867.00000	9555.00000
1143.48548	0.13311	0.73603	12995.31207	851.62722	9789.61505	1141.49806	0.73876	12851.00000	843.00000	9714.00000
1149.67984	0.13956	0.72517	13491.13514	894.93569	10029.52030	1147.68843	0.72918	13335.00000	884.00000	9963.00000
1155.87419	0.14996	0.70802	13953.07917	885.15852	10137.11419	1153.87880	0.71439	13805.00000	896.00000	10118.00000
1162.06855	0.16098	0.69027	14446.12872	862.12568	10238.95771	1160.06917	0.69494	14279.00000	862.00000	10186.00000
1168.26290	0.16758	0.67986	14959.02414	891.75197	10455.51216	1166.25954	0.68302	14800.00000	881.00000	10388.00000
1174.45726	0.17466	0.66887	15420.71473	898.79570	10612.02069	1172.44991	0.67272	15273.00000	903.00000	10570.00000
1180.65161	0.18230	0.65720	15876.41905	861.08105	10729.30554	1178.64028	0.66074	15728.00000	875.00000	10689.00000
1186.84597	0.18897	0.64719	16371.22020	852.06070	10895.73235	1184.83065	0.65041	16201.00000	846.00000	10833.00000
1193.04032	0.19359	0.64034	16894.18264	880.38932	11134.71280	1191.02102	0.64175	16730.00000	875.00000	11050.00000
1199.23468	0.19347	0.64052	17400.55626	883.09277	11462.99709	1197.21139	0.63987	17229.00000	882.00000	11342.00000
1205.42903	0.19193	0.64280	17922.85290	876.52702	11833.72167	1203.40176	0.64227	17758.00000	882.00000	11721.00000
1211.62339	0.19042	0.64503	18412.23826	867.41129	12184.45528	1209.59213	0.64393	18250.00000	866.00000	12060.00000
1217.81774	0.18746	0.64944	18946.64823	877.09601	12612.11107	1215.78250	0.64801	18763.00000	876.00000	12467.00000
1224.01210	0.18416	0.65439	19522.38589	879.59709	13079.37784	1221.97287	0.65254	19334.00000	877.00000	12921.00000
1230.20645	0.18084	0.65942	20046.82356	877.27220	13518.04039	1228.16324	0.65809	19884.00000	882.00000	13387.00000
1236.40081	0.17985	0.66091	20578.92550	894.33634	13904.12150	1234.35361	0.66082	20387.00000	878.00000	13770.00000
1242.59516	0.18021	0.66038	21116.97255	904.50586	14252.36554	1240.54398	0.66053	20962.00000	919.00000	14158.00000
1248.78952	0.18001	0.66068	21555.61107	852.78714	14530.63263	1246.73435	0.66044	21399.00000	858.00000	14424.00000
1254.98387	0.17902	0.66218	22112.97196	897.03001	14945.98993	1252.92472	0.66158	21917.00000	878.00000	14797.00000
1261.17823	0.17882	0.66249	22669.33634	902.45329	15322.78101	1259.11509	0.66284	22498.00000	915.00000	15221.00000
1267.37258	0.18030	0.66024	23144.86310	840.51764	15566.60203	1265.30546	0.66097	22985.00000	857.00000	15483.00000
1273.56694	0.18007	0.66059	23720.39347	860.92978	15961.76314	1271.49583	0.65987	23506.00000	841.00000	15797.00000
1279.76129	0.17725	0.66488	24372.77955	913.59084	16511.13776	1277.68620	0.66328	24166.00000	906.00000	16334.00000
1285.95565	0.17379	0.67020	24945.52650	893.87771	17013.44743	1283.87657	0.66832	24754.00000	903.00000	16843.00000
1292.15000	0.17028	0.67565	25532.41484	877.59600	17535.58588	1290.06694	0.67393	25332.00000	880.00000	17359.00000
1298.34435	0.16758	0.67985	26175.67024	884.75253	18078.98085	1296.25731	0.67859	25949.00000	881.00000	17892.00000
1304.53871	0.16633	0.68182	26805.92834	868.00311	18552.80862	1302.44769	0.68153	26610.00000	881.00000	18416.00000
1310.73306	0.16650	0.68155	27432.03993	867.23944	18972.54717	1308.63806	0.68170	27196.00000	853.00000	18811.00000
1316.92742	0.16731	0.68029	28161.82657	892.73544	19443.55688	1314.82843	0.68094	27925.00000	899.00000	19302.00000
1323.12177	0.16937	0.67706	28842.74169	862.95220	19806.98052	1321.01880	0.67836	28606.00000	864.00000	19683.00000
1329.31613	0.17300	0.67143	29519.54369	871.94640	20106.75349	1327.20917	0.67371	29300.00000	874.00000	20025.00000
1335.51048	0.17890	0.66238	30183.25265	863.66515	20284.22980	1333.39954	0.66584	29944.00000	862.00000	20226.00000
1341.70484	0.18695	0.65021	30926.51890	893.32929	20421.10218	1339.58991	0.65467	30673.00000	881.00000	20385.00000
1347.89919	0.19691	0.63547	31587.63481	894.88004	20399.29928	1345.78028	0.64077	31380.00000	904.00000	20432.00000
1354.09355	0.20762	0.61999	32227.78710	859.30420	20307.10813	1351.97065	0.62514	31988.00000	867.00000	20322.00000
1360.28790	0.21714	0.60654	32929.95072	867.11433	20314.76092	1358.16102	0.61087	32704.00000	861.00000	20313.00000
1366.48226	0.22577	0.59461	33569.06337	866.55753	20311.46718	1364.35139	0.59868	33341.00000	873.00000	20311.00000
1372.67661	0.23248	0.58548	34261.83351	843.87902	20409.68983	1370.54176	0.58789	34024.00000	848.00000	20352.00000
1378.87097	0.23434	0.58299	34838.67465	870.52277	20673.47646	1376.73213	0.58318	34668.00000	855.00000	20574.00000
1385.06532	0.23378	0.58374	35121.03064	877.10458	20866.57243	1382.92250	0.58351	35059.00000	888.00000	20827.00000
1391.25968	0.23403	0.58341	35289.43299	872.38486	20951.66646	1389.11287	0.58371	35214.00000	858.00000	20912.00000
1397.45403	0.23617	0.58054	35460.60298	899.47130	20963.74170	1395.30324	0.58196	35427.00000	906.00000	20996.00000
1403.64839	0.24171	0.57318	35666.10671	869.36576	20814.19283	1401.49361	0.57635	35545.00000	870.00000	20855.00000
1409.84274	0.25265	0.55892	36323.03255	883.09719	20691.14520	1407.68398	0.56488	36050.00000	883.00000	20748.00000
1416.03710	0.26982	0.53726	37284.68636	884.03189	20440.37817	1413.87435	0.54543	36926.00000	879.00000	20540.00000
1422.23145	0.29147	0.51113	38329.42739	892.53935	20028.40624	1420.06472	0.52070	37970.00000	895.00000	20200.00000
1428.42581	0.31858	0.48019	39434.74114	878.71439	19391.72853	1426.25509	0.49168	39022.00000	881.00000	19634.00000
1434.62016	0.34403	0.45287	40575.07439	880.06733	18857.17255	1432.44546	0.46057	40203.00000	880.00000	18991.00000
1440.81452	0.34963	0.44706	41493.68414	879.47622	19036.54369	1438.63583	0.44622	41184.00000	879.00000	18864.00000
1447.00887	0.33927	0.45786	42510.04768	905.41306	19954.94504	1444.82620	0.45359	42113.00000	891.00000	19589.00000
1453.20323	0.33158	0.46604	43543.72896	892.86717	20769.53915	1451.01657	0.46421	43229.00000	914.00000	20557.00000
1459.39758	0.33136	0.46627	44405.02794	864.61268	21166.26530	1457.20694	0.46678	44070.00000	855.00000	21027.00000
1465.59194	0.33487	0.46252	45481.34063	906.97918	21523.29993	1463.39731	0.46417	45094.00000	903.00000	21415.00000
1471.78629	0.33966	0.45744	46480.51435	890.87025	21745.73297	1469.58768	0.45919	46150.00000	894.00000	21675.00000
1477.98065	0.34371	0.45320	47320.91755	868.50781	21920.90112	1475.77805	0.45460	47029.00000	883.00000	21861.00000
1484.17500	0.34674	0.45005	48225.65661	857.63729	22175.46275	1481.96842	0.45103	47881.00000	849.00000	22062.00000
1490.36935	0.34902	0.44770	49092.30051	893.89890	22472.19469	1488.15879	0.44851	48824.00000	887.00000	22387.00000
1496.56371	0.35095	0.44570	49778.04514	887.35808	22678.12437	1494.34916	0.44635	49521.00000	891.00000	22597.00000
1502.75806	0.35232	0.44430	50469.48096	863.36996	22903.47534	1500.53953	0.44474	50241.00000	875.00000	22830.00000
1508.95242	0.35303	0.44358	51158.04064	897.54966	23192.15460	1506.72990	0.44375	50884.00000	867.00000	23062.00000
1515.14677	0.35370	0.44289	51878.91086	902.58342	23479.45263	1512.92027	0.44324	51650.00000	933.00000	23413.00000
1521.34113	0.35439	0.44219	52577.57434	850.45197	23723.93631	1519.11064	0.44229	52288.00000	838.00000	23594.00000
1527.53548	0.35436	0.44222	53324.26188	911.75147	24089.66720	1525.30101	0.44224	53098.00000	907.00000	23988.00000
1533.72984	0.35408	0.44251	53919.19306	885.74627	24353.72949	1531.49138	0.44228	53680.00000	890.00000	24238.00000
1539.92419	0.35313	0.44347	54593.00479	874.24673	24697.13334	1537.68175	0.44313	54367.00000	884.00000	24584.00000
1546.11855	0.35228	0.44434	55208.54831	866.87961	25013.24788	1543.87212	0.44403	54973.00000	860.00000	24888.00000
1552.31290	0.35180	0.44484	55811.51925	888.84465	25320.51575	1550.06249	0.44475	55614.00000	887.00000	25227.00000
1558.50726	0.35212	0.44451	56431.29012	888.46797	25577.53200	1556.25286	0.44472	56172.00000	885.00000	25472.00000
1564.70161	0.35341	0.44319	57011.94896	890.80855	25763.20673	1562.44323	0.44381	56858.00000	895.00000	25732.00000
1570.89597	0.35514	0.44143	57413.89650	869.93991	25829.86121	1568.63360	0.44200	57231.00000	876.00000	25785.00000
1577.09032	0.35638	0.44017	57979.03512	879.44141	26013.10717	1574.82397	0.44060	57786.00000	871.00000	25948.00000
1583.28468	0.35738	0.43916	58450.11400	894.72676	26170.57615	1581.01434	0.43949	58279.00000	894.00000	26114.00000
1589.47903	0.35751	0.43903	58825.25008	895.18773	26328.20736	1587.20471	0.43890	58712.00000	892.00000	26269.00000
1595.67339	0.35614	0.44041	59146.72764	885.70009	26544.70956	1593.39508	0.43975	59009.00000	896.00000	26451.00000
1601.86774	0.35335	0.44325	59574.82387	893.37146	26904.13944	1599.58545	0.44202	59419.00000	877.00000	26754.00000
1608.06210	0.34955	0.44715	59920.72690	909.46488	27296.36485	1605.77582	0.44567	59809.00000	920.00000	27165.00000
1614.25645	0.34531	0.45154	60220.95853	887.30010	27678.67558	1611.96619	0.44983	60102.00000	882.00000	27521.00000
1620.45081	0.34093	0.45611	60438.83040	897.12192	28054.68121	1618.15656	0.45448	60391.00000	905.00000	27940.00000
1626.64516	0.33662	0.46066	60579.30309	884.35356	28383.61184	1624.34693	0.45889	60502.00000	878.00000	28239.00000
1632.83952	0.33215	0.46542	60848.95373	899.57786	28801.47331	1630.53730	0.46372	60754.00000	903.00000	28657.00000
1639.03387	0.32822	0.46966	60928.35809	870.27700	29076.85921	1636.72767	0.46812	60938.00000	879.00000	28994.00000
1645.22823	0.32465	0.47353	60778.06969	873.98452	29240.72791	1642.91804	0.47213	60849.00000	868.00000	29187.00000
1651.42258	0.32143	0.47705	59777.88214	914.49031	28995.28057	1649.10841	0.47577	60357.00000	896.00000	29186.00000
1657.61694	0.31869	0.48007	57642.70006	920.63108	28150.96941	1655.29878	0.47903	58452.00000	931.00000	28485.00000
1663.81129	0.31600	0.48306	56689.89176	898.36344	27850.14186	1661.48915	0.48184	56762.00000	897.00000	27815.00000
1670.00565	0.31287	0.48655	55553.85124	917.06266	27499.56295	1667.67952	0.48526	56404.00000	914.00000	27841.00000
1676.20000	0.31006	0.48972	52318.47966	879.24303	26070.79415	1673.86989	0.48857	53497.00000	901.00000	26598.00000
0.00000	0.00000	0.00000	0.00000	0.00000	0.00000	1680.06026	0.49150	50136.00000	860.00000	25079.00000
0.00000	0.00000	0.00000	0.00000	0.00000	0.00000	1686.25063	0.49364	46019.00000	923.00000	23184.00000
0.00000	0.00000	0.00000	0.00000	0.00000	0.00000	1692.44100	0.49364	46019.00000	923.00000	23184.00000
