'File 植物油_4_2016一月28_1116.xls
'Part ID 植物油_4
'Scan Created 2016/1/28 11:16:34
'Instrument S1-00205
'Version 1.5.7
'Integration Time 10100 s
'Number of Scans 50
'Units Absorbance
'Thermistor 47.75
Wavelength	Absorbance	Normalized	100%	dark	Raw 1	Native Wvl	Native Norm	Native 100%	Native dark	Native 1
908.10000	1.44789	0.03565	3595.82598	881.87120	978.83736	906.26400	0.03673	3684.00000	880.00000	983.00000
914.29435	1.45716	0.03490	3338.07467	866.26472	952.42390	912.45437	0.03441	3404.00000	876.00000	963.00000
920.48871	1.43358	0.03685	3265.72768	878.51909	966.53295	918.64474	0.03671	3257.00000	860.00000	948.00000
926.68306	1.45224	0.03530	3334.01990	918.74175	1003.96573	924.83511	0.03583	3324.00000	924.00000	1010.00000
932.87742	1.45793	0.03484	3389.36197	864.93184	952.93129	931.02548	0.03468	3355.00000	875.00000	961.00000
939.07177	1.45519	0.03506	3619.59224	884.95115	980.76728	937.21585	0.03529	3537.00000	873.00000	967.00000
945.26613	1.46928	0.03394	3856.44440	889.93616	990.66234	943.40622	0.03411	3802.00000	900.00000	999.00000
951.46048	1.47072	0.03383	4005.12223	859.91735	966.30018	949.59659	0.03391	3955.00000	859.00000	964.00000
957.65484	1.47873	0.03321	4215.51392	893.73656	1004.04887	955.78696	0.03340	4148.00000	885.00000	994.00000
963.84919	1.47990	0.03312	4374.23623	878.43417	994.22343	961.97733	0.03301	4344.00000	891.00000	1005.00000
970.04355	1.47420	0.03356	4523.41127	896.06510	1017.79390	968.16770	0.03350	4453.00000	871.00000	991.00000
976.23790	1.47947	0.03315	4726.50938	925.04592	1051.06405	974.35807	0.03335	4693.00000	945.00000	1070.00000
982.43226	1.48173	0.03298	4835.26800	856.06452	987.32748	980.54844	0.03287	4778.00000	854.00000	983.00000
988.62661	1.47812	0.03326	5079.18703	905.14928	1043.94984	986.73881	0.03332	5013.00000	901.00000	1038.00000
994.82097	1.48763	0.03254	5288.13901	870.37131	1014.10300	992.92918	0.03276	5216.00000	881.00000	1023.00000
1001.01532	1.48794	0.03251	5547.24444	876.96250	1028.82877	999.11955	0.03237	5470.00000	867.00000	1016.00000
1007.20968	1.48303	0.03288	5821.73207	889.84005	1051.99338	1005.30992	0.03290	5729.00000	896.00000	1055.00000
1013.40403	1.48915	0.03242	6108.36987	875.33513	1045.00473	1011.50029	0.03255	6031.00000	870.00000	1038.00000
1019.59839	1.48597	0.03266	6349.51155	919.49996	1096.89009	1017.69066	0.03246	6269.00000	908.00000	1082.00000
1025.79274	1.48502	0.03273	6610.09178	908.88037	1095.43963	1023.88103	0.03295	6536.00000	921.00000	1106.00000
1031.98710	1.49410	0.03206	6863.27600	885.10537	1076.78361	1030.07140	0.03207	6776.00000	883.00000	1072.00000
1038.18145	1.48801	0.03251	7137.95533	879.30949	1082.74170	1036.26177	0.03241	7062.00000	892.00000	1092.00000
1044.37581	1.48904	0.03243	7415.45215	852.78191	1065.62223	1042.45214	0.03248	7313.00000	848.00000	1058.00000
1050.57016	1.49151	0.03225	7763.75520	889.74850	1111.40697	1048.64251	0.03230	7664.00000	884.00000	1103.00000
1056.76452	1.49120	0.03227	8043.98752	873.54577	1104.94867	1054.83288	0.03222	7958.00000	881.00000	1109.00000
1062.95887	1.48969	0.03238	8346.47029	875.55305	1117.46812	1061.02325	0.03239	8246.00000	868.00000	1107.00000
1069.15323	1.49023	0.03234	8651.05608	883.28349	1134.51659	1067.21362	0.03232	8564.00000	890.00000	1138.00000
1075.34758	1.48792	0.03251	8931.01237	859.29405	1121.74409	1073.40399	0.03247	8836.00000	860.00000	1119.00000
1081.54194	1.48919	0.03242	9243.78719	871.40916	1142.82706	1079.59436	0.03249	9149.00000	870.00000	1139.00000
1087.73629	1.49068	0.03231	9580.78777	901.76500	1182.19485	1085.78473	0.03229	9462.00000	883.00000	1160.00000
1093.93065	1.49186	0.03222	9940.76391	922.65990	1213.19863	1091.97510	0.03233	9841.00000	933.00000	1221.00000
1100.12500	1.49569	0.03194	10254.38783	869.25749	1169.03413	1098.16547	0.03194	10144.00000	878.00000	1174.00000
1106.31935	1.49472	0.03201	10641.04469	875.00467	1187.58481	1104.35584	0.03203	10519.00000	873.00000	1182.00000
1112.51371	1.49528	0.03197	11015.80766	872.41348	1196.71050	1110.54621	0.03193	10897.00000	874.00000	1194.00000
1118.70806	1.49366	0.03209	11401.60672	872.77123	1210.58956	1116.73658	0.03210	11276.00000	871.00000	1205.00000
1124.90242	1.49352	0.03210	11814.30888	885.70510	1236.52981	1122.92695	0.03204	11680.00000	881.00000	1227.00000
1131.09677	1.49338	0.03211	12236.17715	886.26842	1250.65520	1129.11732	0.03219	12103.00000	890.00000	1251.00000
1137.29113	1.49564	0.03194	12606.57558	854.95675	1230.35985	1135.30769	0.03190	12498.00000	867.00000	1238.00000
1143.48548	1.49287	0.03215	12995.31207	851.62722	1241.97038	1141.49806	0.03215	12851.00000	843.00000	1229.00000
1149.67984	1.49420	0.03205	13491.13514	894.93569	1298.64223	1147.68843	0.03205	13335.00000	884.00000	1283.00000
1155.87419	1.49461	0.03202	13953.07917	885.15852	1303.53285	1153.87880	0.03207	13805.00000	896.00000	1310.00000
1162.06855	1.49587	0.03193	14446.12872	862.12568	1295.82311	1160.06917	0.03190	14279.00000	862.00000	1290.00000
1168.26290	1.49422	0.03205	14959.02414	891.75197	1342.54293	1166.25954	0.03204	14800.00000	881.00000	1327.00000
1174.45726	1.49660	0.03187	15420.71473	898.79570	1361.62595	1172.44991	0.03194	15273.00000	903.00000	1362.00000
1180.65161	1.49774	0.03179	15876.41905	861.08105	1338.40072	1178.64028	0.03178	15728.00000	875.00000	1347.00000
1186.84597	1.49696	0.03184	16371.22020	852.06070	1346.25696	1184.83065	0.03185	16201.00000	846.00000	1335.00000
1193.04032	1.49813	0.03176	16894.18264	880.38932	1388.96922	1191.02102	0.03179	16730.00000	875.00000	1379.00000
1199.23468	1.49780	0.03178	17400.55626	883.09277	1408.07612	1197.21139	0.03175	17229.00000	882.00000	1401.00000
1205.42903	1.49614	0.03190	17922.85290	876.52702	1420.39111	1203.40176	0.03188	17758.00000	882.00000	1420.00000
1211.62339	1.49752	0.03180	18412.23826	867.41129	1425.38777	1209.59213	0.03187	18250.00000	866.00000	1420.00000
1217.81774	1.49872	0.03172	18946.64823	877.09601	1450.22418	1215.78250	0.03170	18763.00000	876.00000	1443.00000
1224.01210	1.49920	0.03168	19522.38589	879.59709	1470.18995	1221.97287	0.03175	19334.00000	877.00000	1463.00000
1230.20645	1.50119	0.03154	20046.82356	877.27220	1481.83561	1228.16324	0.03152	19884.00000	882.00000	1481.00000
1236.40081	1.50018	0.03161	20578.92550	894.33634	1516.53359	1234.35361	0.03163	20387.00000	878.00000	1495.00000
1242.59516	1.50110	0.03154	21116.97255	904.50586	1542.08938	1240.54398	0.03153	20962.00000	919.00000	1551.00000
1248.78952	1.50060	0.03158	21555.61107	852.78714	1506.54145	1246.73435	0.03160	21399.00000	858.00000	1507.00000
1254.98387	1.50154	0.03151	22112.97196	897.03001	1565.56891	1252.92472	0.03151	21917.00000	878.00000	1541.00000
1261.17823	1.50073	0.03157	22669.33634	902.45329	1589.62314	1259.11509	0.03155	22498.00000	915.00000	1596.00000
1267.37258	1.50182	0.03149	23144.86310	840.51764	1542.88329	1265.30546	0.03154	22985.00000	857.00000	1555.00000
1273.56694	1.50245	0.03144	23720.39347	860.92978	1579.76105	1271.49583	0.03141	23506.00000	841.00000	1553.00000
1279.76129	1.50067	0.03157	24372.77955	913.59084	1654.27442	1277.68620	0.03156	24166.00000	906.00000	1640.00000
1285.95565	1.50183	0.03149	24945.52650	893.87771	1651.26049	1283.87657	0.03153	24754.00000	903.00000	1655.00000
1292.15000	1.50343	0.03137	25532.41484	877.59600	1651.11220	1290.06694	0.03141	25332.00000	880.00000	1648.00000
1298.34435	1.50335	0.03138	26175.67024	884.75253	1678.38824	1296.25731	0.03135	25949.00000	881.00000	1667.00000
1304.53871	1.50365	0.03136	26805.92834	868.00311	1681.34197	1302.44769	0.03140	26610.00000	881.00000	1689.00000
1310.73306	1.50542	0.03123	27432.03993	867.23944	1696.88494	1308.63806	0.03124	27196.00000	853.00000	1676.00000
1316.92742	1.50480	0.03127	28161.82657	892.73544	1745.55857	1314.82843	0.03127	27925.00000	899.00000	1744.00000
1323.12177	1.50428	0.03131	28842.74169	862.95220	1739.09672	1321.01880	0.03129	28606.00000	864.00000	1732.00000
1329.31613	1.50415	0.03132	29519.54369	871.94640	1769.22676	1327.20917	0.03134	29300.00000	874.00000	1765.00000
1335.51048	1.50515	0.03125	30183.25265	863.66515	1779.91936	1333.39954	0.03126	29944.00000	862.00000	1771.00000
1341.70484	1.50438	0.03131	30926.51890	893.32929	1833.52573	1339.58991	0.03128	30673.00000	881.00000	1813.00000
1347.89919	1.50389	0.03134	31587.63481	894.88004	1856.82612	1345.78028	0.03134	31380.00000	904.00000	1859.00000
1354.09355	1.50532	0.03124	32227.78710	859.30420	1839.16249	1351.97065	0.03130	31988.00000	867.00000	1841.00000
1360.28790	1.50622	0.03117	32929.95072	867.11433	1866.65194	1358.16102	0.03115	32704.00000	861.00000	1853.00000
1366.48226	1.50582	0.03120	33569.06337	866.55753	1886.91144	1364.35139	0.03123	33341.00000	873.00000	1887.00000
1372.67661	1.50627	0.03117	34261.83351	843.87902	1885.52744	1370.54176	0.03114	34024.00000	848.00000	1881.00000
1378.87097	1.50514	0.03125	34838.67465	870.52277	1932.02152	1376.73213	0.03126	34668.00000	855.00000	1912.00000
1385.06532	1.50569	0.03121	35121.03064	877.10458	1945.90237	1382.92250	0.03120	35059.00000	888.00000	1954.00000
1391.25968	1.50420	0.03132	35289.43299	872.38486	1950.26151	1389.11287	0.03129	35214.00000	858.00000	1933.00000
1397.45403	1.50469	0.03128	35460.60298	899.47130	1980.64291	1395.30324	0.03131	35427.00000	906.00000	1987.00000
1403.64839	1.50528	0.03124	35666.10671	869.36576	1956.45250	1401.49361	0.03123	35545.00000	870.00000	1953.00000
1409.84274	1.50569	0.03121	36323.03255	883.09719	1989.18249	1407.68398	0.03125	36050.00000	883.00000	1982.00000
1416.03710	1.50685	0.03113	37284.68636	884.03189	2017.14109	1413.87435	0.03113	36926.00000	879.00000	2001.00000
1422.23145	1.50595	0.03119	38329.42739	892.53935	2060.28393	1420.06472	0.03118	37970.00000	895.00000	2051.00000
1428.42581	1.50655	0.03115	39434.74114	878.71439	2079.69891	1426.25509	0.03117	39022.00000	881.00000	2070.00000
1434.62016	1.50744	0.03109	40575.07439	880.06733	2114.01914	1432.44546	0.03110	40203.00000	880.00000	2103.00000
1440.81452	1.50712	0.03111	41493.68414	879.47622	2142.91141	1438.63583	0.03109	41184.00000	879.00000	2132.00000
1447.00887	1.50566	0.03121	42510.04768	905.41306	2204.06278	1444.82620	0.03117	42113.00000	891.00000	2176.00000
1453.20323	1.50575	0.03121	43543.72896	892.86717	2223.84631	1451.01657	0.03124	43229.00000	914.00000	2236.00000
1459.39758	1.50703	0.03112	44405.02794	864.61268	2219.39621	1457.20694	0.03112	44070.00000	855.00000	2200.00000
1465.59194	1.50593	0.03119	45481.34063	906.97918	2297.42574	1463.39731	0.03116	45094.00000	903.00000	2280.00000
1471.78629	1.50578	0.03120	46480.51435	890.87025	2313.45924	1469.58768	0.03122	46150.00000	894.00000	2307.00000
1477.98065	1.50632	0.03117	47320.91755	868.50781	2316.24926	1475.77805	0.03116	47029.00000	883.00000	2321.00000
1484.17500	1.50525	0.03124	48225.65661	857.63729	2337.56070	1481.96842	0.03121	47881.00000	849.00000	2317.00000
1490.36935	1.50431	0.03131	49092.30051	893.89890	2403.02486	1488.15879	0.03129	48824.00000	887.00000	2387.00000
1496.56371	1.50443	0.03130	49778.04514	887.35808	2417.71959	1494.34916	0.03132	49521.00000	891.00000	2414.00000
1502.75806	1.50463	0.03129	50469.48096	863.36996	2415.43468	1500.53953	0.03128	50241.00000	875.00000	2419.00000
1508.95242	1.50384	0.03134	51158.04064	897.54966	2472.91630	1506.72990	0.03133	50884.00000	867.00000	2434.00000
1515.14677	1.50379	0.03135	51878.91086	902.58342	2500.59775	1512.92027	0.03135	51650.00000	933.00000	2523.00000
1521.34113	1.50357	0.03136	52577.57434	850.45197	2472.80458	1519.11064	0.03135	52288.00000	838.00000	2451.00000
1527.53548	1.50264	0.03143	53324.26188	911.75147	2559.13407	1525.30101	0.03140	53098.00000	907.00000	2546.00000
1533.72984	1.50218	0.03146	53919.19306	885.74627	2554.41570	1531.49138	0.03146	53680.00000	890.00000	2551.00000
1539.92419	1.50245	0.03145	54593.00479	874.24673	2563.43942	1537.68175	0.03145	54367.00000	884.00000	2566.00000
1546.11855	1.50217	0.03147	55208.54831	866.87961	2576.74536	1543.87212	0.03145	54973.00000	860.00000	2562.00000
1552.31290	1.50126	0.03153	55811.51925	888.84465	2620.60887	1550.06249	0.03150	55614.00000	887.00000	2611.00000
1558.50726	1.50034	0.03160	56431.29012	888.46797	2643.53359	1556.25286	0.03158	56172.00000	885.00000	2631.00000
1564.70161	1.50082	0.03156	57011.94896	890.80855	2662.16758	1562.44323	0.03159	56858.00000	895.00000	2663.00000
1570.89597	1.50148	0.03152	57413.89650	869.93991	2651.94153	1568.63360	0.03151	57231.00000	876.00000	2652.00000
1577.09032	1.50051	0.03159	57979.03512	879.44141	2682.95723	1574.82397	0.03156	57786.00000	871.00000	2667.00000
1583.28468	1.49974	0.03164	58450.11400	894.72676	2715.89571	1581.01434	0.03163	58279.00000	894.00000	2709.00000
1589.47903	1.50024	0.03161	58825.25008	895.18773	2726.07954	1587.20471	0.03163	58712.00000	892.00000	2721.00000
1595.67339	1.50090	0.03156	59146.72764	885.70009	2724.25252	1593.39508	0.03156	59009.00000	896.00000	2730.00000
1601.86774	1.49969	0.03165	59574.82387	893.37146	2750.38749	1599.58545	0.03160	59419.00000	877.00000	2727.00000
1608.06210	1.49949	0.03166	59920.72690	909.46488	2777.73384	1605.77582	0.03169	59809.00000	920.00000	2786.00000
1614.25645	1.49983	0.03164	60220.95853	887.30010	2764.34656	1611.96619	0.03161	60102.00000	882.00000	2754.00000
1620.45081	1.49940	0.03167	60438.83040	897.12192	2782.61315	1618.15656	0.03169	60391.00000	905.00000	2790.00000
1626.64516	1.49987	0.03163	60579.30309	884.35356	2772.65889	1624.34693	0.03161	60502.00000	878.00000	2763.00000
1632.83952	1.49946	0.03166	60848.95373	899.57786	2797.69630	1630.53730	0.03168	60754.00000	903.00000	2799.00000
1639.03387	1.49985	0.03163	60928.35809	870.27700	2770.15241	1636.72767	0.03162	60938.00000	879.00000	2778.00000
1645.22823	1.49876	0.03171	60778.06969	873.98452	2773.75384	1642.91804	0.03169	60849.00000	868.00000	2769.00000
1651.42258	1.49814	0.03176	59777.88214	914.49031	2783.87245	1649.10841	0.03174	60357.00000	896.00000	2783.00000
1657.61694	1.49815	0.03176	57642.70006	920.63108	2722.01416	1655.29878	0.03178	58452.00000	931.00000	2759.00000
1663.81129	1.49910	0.03169	56689.89176	898.36344	2666.31915	1661.48915	0.03170	56762.00000	897.00000	2668.00000
1670.00565	1.49809	0.03176	55553.85124	917.06266	2652.35227	1667.67952	0.03172	56404.00000	914.00000	2674.00000
1676.20000	1.49708	0.03184	52318.47966	879.24303	2516.97374	1673.86989	0.03183	53497.00000	901.00000	2575.00000
0.00000	0.00000	0.00000	0.00000	0.00000	0.00000	1680.06026	0.03186	50136.00000	860.00000	2430.00000
0.00000	0.00000	0.00000	0.00000	0.00000	0.00000	1686.25063	0.03204	46019.00000	923.00000	2368.00000
0.00000	0.00000	0.00000	0.00000	0.00000	0.00000	1692.44100	0.03204	46019.00000	923.00000	2368.00000
