'File 植物油_5_2016一月28_1116.xls
'Part ID 植物油_5
'Scan Created 2016/1/28 11:16:37
'Instrument S1-00205
'Version 1.5.7
'Integration Time 10100 s
'Number of Scans 50
'Units Absorbance
'Thermistor 47.75
Wavelength	Absorbance	Normalized	100%	dark	Raw 1	Native Wvl	Native Norm	Native 100%	Native dark	Native 1
908.10000	1.44687	0.03574	3595.82598	881.87120	979.03846	906.26400	0.03673	3684.00000	880.00000	983.00000
914.29435	1.46026	0.03465	3338.07467	866.26472	951.83002	912.45437	0.03441	3404.00000	876.00000	963.00000
920.48871	1.44355	0.03601	3265.72768	878.51909	964.52524	918.64474	0.03588	3257.00000	860.00000	946.00000
926.68306	1.45508	0.03507	3334.01990	918.74175	1003.41847	924.83511	0.03542	3324.00000	924.00000	1009.00000
932.87742	1.45804	0.03483	3389.36197	864.93184	952.89194	931.02548	0.03468	3355.00000	875.00000	961.00000
939.07177	1.45358	0.03519	3619.59224	884.95115	981.15459	937.21585	0.03529	3537.00000	873.00000	967.00000
945.26613	1.46661	0.03415	3856.44440	889.93616	991.23966	943.40622	0.03446	3802.00000	900.00000	1000.00000
951.46048	1.46716	0.03411	4005.12223	859.91735	967.22630	949.59659	0.03391	3955.00000	859.00000	964.00000
957.65484	1.46952	0.03392	4215.51392	893.73656	1006.35998	955.78696	0.03432	4148.00000	885.00000	997.00000
963.84919	1.48637	0.03263	4374.23623	878.43417	992.53462	961.97733	0.03273	4344.00000	891.00000	1004.00000
970.04355	1.47472	0.03352	4523.41127	896.06510	1017.65577	968.16770	0.03322	4453.00000	871.00000	990.00000
976.23790	1.47799	0.03327	4726.50938	925.04592	1051.47852	974.35807	0.03362	4693.00000	945.00000	1071.00000
982.43226	1.49040	0.03233	4835.26800	856.06452	984.73490	980.54844	0.03236	4778.00000	854.00000	981.00000
988.62661	1.48116	0.03302	5079.18703	905.14928	1043.00468	986.73881	0.03283	5013.00000	901.00000	1036.00000
994.82097	1.48533	0.03271	5288.13901	870.37131	1014.83037	992.92918	0.03299	5216.00000	881.00000	1024.00000
1001.01532	1.49161	0.03224	5547.24444	876.96250	1027.57760	999.11955	0.03215	5470.00000	867.00000	1015.00000
1007.20968	1.48580	0.03267	5821.73207	889.84005	1050.93954	1005.30992	0.03269	5729.00000	896.00000	1054.00000
1013.40403	1.49050	0.03232	6108.36987	875.33513	1044.50147	1011.50029	0.03236	6031.00000	870.00000	1037.00000
1019.59839	1.48802	0.03251	6349.51155	919.49996	1096.01572	1017.69066	0.03246	6269.00000	908.00000	1082.00000
1025.79274	1.49150	0.03225	6610.09178	908.88037	1092.71519	1023.88103	0.03241	6536.00000	921.00000	1103.00000
1031.98710	1.49621	0.03190	6863.27600	885.10537	1075.82607	1030.07140	0.03190	6776.00000	883.00000	1071.00000
1038.18145	1.49289	0.03214	7137.95533	879.30949	1080.47971	1036.26177	0.03209	7062.00000	892.00000	1090.00000
1044.37581	1.49239	0.03218	7415.45215	852.78191	1063.98723	1042.45214	0.03217	7313.00000	848.00000	1056.00000
1050.57016	1.49360	0.03209	7763.75520	889.74850	1110.34074	1048.64251	0.03215	7664.00000	884.00000	1102.00000
1056.76452	1.49621	0.03190	8043.98752	873.54577	1102.29476	1054.83288	0.03193	7958.00000	881.00000	1107.00000
1062.95887	1.49752	0.03180	8346.47029	875.55305	1113.14068	1061.02325	0.03185	8246.00000	868.00000	1103.00000
1069.15323	1.49604	0.03191	8651.05608	883.28349	1131.19377	1067.21362	0.03180	8564.00000	890.00000	1134.00000
1075.34758	1.49133	0.03226	8931.01237	859.29405	1119.67782	1073.40399	0.03222	8836.00000	860.00000	1117.00000
1081.54194	1.49447	0.03203	9243.78719	871.40916	1139.56051	1079.59436	0.03213	9149.00000	870.00000	1136.00000
1087.73629	1.49813	0.03176	9580.78777	901.76500	1177.40730	1085.78473	0.03182	9462.00000	883.00000	1156.00000
1093.93065	1.50029	0.03160	9940.76391	922.65990	1207.63844	1091.97510	0.03166	9841.00000	933.00000	1215.00000
1100.12500	1.50149	0.03151	10254.38783	869.25749	1165.04052	1098.16547	0.03151	10144.00000	878.00000	1170.00000
1106.31935	1.50220	0.03146	10641.04469	875.00467	1182.26045	1104.35584	0.03152	10519.00000	873.00000	1177.00000
1112.51371	1.50425	0.03131	11015.80766	872.41348	1190.06558	1110.54621	0.03133	10897.00000	874.00000	1188.00000
1118.70806	1.50430	0.03131	11401.60672	872.77123	1202.42687	1116.73658	0.03133	11276.00000	871.00000	1197.00000
1124.90242	1.50361	0.03136	11814.30888	885.70510	1228.45984	1122.92695	0.03130	11680.00000	881.00000	1219.00000
1131.09677	1.50246	0.03144	12236.17715	886.26842	1243.13138	1129.11732	0.03148	12103.00000	890.00000	1243.00000
1137.29113	1.50467	0.03128	12606.57558	854.95675	1222.62585	1135.30769	0.03130	12498.00000	867.00000	1231.00000
1143.48548	1.50468	0.03128	12995.31207	851.62722	1231.50460	1141.49806	0.03131	12851.00000	843.00000	1219.00000
1149.67984	1.50443	0.03130	13491.13514	894.93569	1289.24780	1147.68843	0.03124	13335.00000	884.00000	1273.00000
1155.87419	1.50252	0.03144	13953.07917	885.15852	1295.99528	1153.87880	0.03145	13805.00000	896.00000	1302.00000
1162.06855	1.50518	0.03125	14446.12872	862.12568	1286.60727	1160.06917	0.03130	14279.00000	862.00000	1282.00000
1168.26290	1.50641	0.03116	14959.02414	891.75197	1330.08493	1166.25954	0.03118	14800.00000	881.00000	1315.00000
1174.45726	1.50773	0.03107	15420.71473	898.79570	1349.91475	1172.44991	0.03111	15273.00000	903.00000	1350.00000
1180.65161	1.50954	0.03094	15876.41905	861.08105	1325.59956	1178.64028	0.03097	15728.00000	875.00000	1335.00000
1186.84597	1.51106	0.03083	16371.22020	852.06070	1330.46838	1184.83065	0.03087	16201.00000	846.00000	1320.00000
1193.04032	1.51143	0.03080	16894.18264	880.38932	1373.65738	1191.02102	0.03078	16730.00000	875.00000	1363.00000
1199.23468	1.51177	0.03078	17400.55626	883.09277	1391.43512	1197.21139	0.03083	17229.00000	882.00000	1386.00000
1205.42903	1.51394	0.03062	17922.85290	876.52702	1398.57278	1203.40176	0.03064	17758.00000	882.00000	1399.00000
1211.62339	1.51355	0.03065	18412.23826	867.41129	1405.16774	1209.59213	0.03066	18250.00000	866.00000	1399.00000
1217.81774	1.51508	0.03054	18946.64823	877.09601	1429.01563	1215.78250	0.03058	18763.00000	876.00000	1423.00000
1224.01210	1.51739	0.03038	19522.38589	879.59709	1445.98254	1221.97287	0.03045	19334.00000	877.00000	1439.00000
1230.20645	1.51941	0.03024	20046.82356	877.27220	1456.97346	1228.16324	0.03026	19884.00000	882.00000	1457.00000
1236.40081	1.51952	0.03023	20578.92550	894.33634	1489.45445	1234.35361	0.03024	20387.00000	878.00000	1468.00000
1242.59516	1.52064	0.03016	21116.97255	904.50586	1514.02239	1240.54398	0.03019	20962.00000	919.00000	1524.00000
1248.78952	1.52219	0.03005	21555.61107	852.78714	1474.84837	1246.73435	0.03009	21399.00000	858.00000	1476.00000
1254.98387	1.52301	0.02999	22112.97196	897.03001	1533.31262	1252.92472	0.02999	21917.00000	878.00000	1509.00000
1261.17823	1.52230	0.03004	22669.33634	902.45329	1556.34584	1259.11509	0.03002	22498.00000	915.00000	1563.00000
1267.37258	1.52380	0.02994	23144.86310	840.51764	1508.21130	1265.30546	0.03001	22985.00000	857.00000	1521.00000
1273.56694	1.52496	0.02986	23720.39347	860.92978	1543.46103	1271.49583	0.02983	23506.00000	841.00000	1517.00000
1279.76129	1.52349	0.02996	24372.77955	913.59084	1616.35820	1277.68620	0.02997	24166.00000	906.00000	1603.00000
1285.95565	1.52575	0.02980	24945.52650	893.87771	1610.67893	1283.87657	0.02985	24754.00000	903.00000	1615.00000
1292.15000	1.52719	0.02970	25532.41484	877.59600	1609.92699	1290.06694	0.02973	25332.00000	880.00000	1607.00000
1298.34435	1.52741	0.02969	26175.67024	884.75253	1635.61444	1296.25731	0.02968	25949.00000	881.00000	1625.00000
1304.53871	1.52917	0.02957	26805.92834	868.00311	1634.93070	1302.44769	0.02966	26610.00000	881.00000	1644.00000
1310.73306	1.53237	0.02935	27432.03993	867.23944	1646.98393	1308.63806	0.02938	27196.00000	853.00000	1627.00000
1316.92742	1.53184	0.02939	28161.82657	892.73544	1694.09359	1314.82843	0.02938	27925.00000	899.00000	1693.00000
1323.12177	1.53213	0.02937	28842.74169	862.95220	1684.67011	1321.01880	0.02938	28606.00000	864.00000	1679.00000
1329.31613	1.53413	0.02923	29519.54369	871.94640	1709.37999	1327.20917	0.02930	29300.00000	874.00000	1707.00000
1335.51048	1.53554	0.02914	30183.25265	863.66515	1718.01285	1333.39954	0.02912	29944.00000	862.00000	1709.00000
1341.70484	1.53480	0.02919	30926.51890	893.32929	1769.90462	1339.58991	0.02920	30673.00000	881.00000	1751.00000
1347.89919	1.53647	0.02908	31587.63481	894.88004	1787.32248	1345.78028	0.02910	31380.00000	904.00000	1791.00000
1354.09355	1.53829	0.02895	32227.78710	859.30420	1767.53326	1351.97065	0.02902	31988.00000	867.00000	1770.00000
1360.28790	1.53953	0.02887	32929.95072	867.11433	1792.84159	1358.16102	0.02886	32704.00000	861.00000	1780.00000
1366.48226	1.53907	0.02890	33569.06337	866.55753	1811.70058	1364.35139	0.02892	33341.00000	873.00000	1812.00000
1372.67661	1.53973	0.02886	34261.83351	843.87902	1808.27423	1370.54176	0.02885	34024.00000	848.00000	1805.00000
1378.87097	1.53954	0.02887	34838.67465	870.52277	1851.20602	1376.73213	0.02889	34668.00000	855.00000	1832.00000
1385.06532	1.54087	0.02878	35121.03064	877.10458	1862.74990	1382.92250	0.02880	35059.00000	888.00000	1872.00000
1391.25968	1.54093	0.02878	35289.43299	872.38486	1862.86038	1389.11287	0.02879	35214.00000	858.00000	1847.00000
1397.45403	1.54203	0.02871	35460.60298	899.47130	1891.56405	1395.30324	0.02874	35427.00000	906.00000	1898.00000
1403.64839	1.54263	0.02867	35666.10671	869.36576	1866.87763	1401.49361	0.02867	35545.00000	870.00000	1864.00000
1409.84274	1.54418	0.02856	36323.03255	883.09719	1895.37609	1407.68398	0.02863	36050.00000	883.00000	1890.00000
1416.03710	1.54621	0.02843	37284.68636	884.03189	1918.96914	1413.87435	0.02844	36926.00000	879.00000	1904.00000
1422.23145	1.54636	0.02842	38329.42739	892.53935	1956.49576	1420.06472	0.02846	37970.00000	895.00000	1950.00000
1428.42581	1.54843	0.02829	39434.74114	878.71439	1969.33907	1426.25509	0.02832	39022.00000	881.00000	1961.00000
1434.62016	1.54947	0.02822	40575.07439	880.06733	2000.17606	1432.44546	0.02825	40203.00000	880.00000	1991.00000
1440.81452	1.55034	0.02816	41493.68414	879.47622	2023.26351	1438.63583	0.02816	41184.00000	879.00000	2014.00000
1447.00887	1.54904	0.02825	42510.04768	905.41306	2080.59628	1444.82620	0.02821	42113.00000	891.00000	2054.00000
1453.20323	1.54925	0.02823	43543.72896	892.86717	2096.98700	1451.01657	0.02826	43229.00000	914.00000	2110.00000
1459.39758	1.55042	0.02816	44405.02794	864.61268	2090.55918	1457.20694	0.02816	44070.00000	855.00000	2072.00000
1465.59194	1.54942	0.02822	45481.34063	906.97918	2164.94780	1463.39731	0.02820	45094.00000	903.00000	2149.00000
1471.78629	1.54940	0.02822	46480.51435	890.87025	2177.52002	1469.58768	0.02824	46150.00000	894.00000	2172.00000
1477.98065	1.54966	0.02821	47320.91755	868.50781	2178.76009	1475.77805	0.02819	47029.00000	883.00000	2184.00000
1484.17500	1.54857	0.02828	48225.65661	857.63729	2197.04999	1481.96842	0.02826	47881.00000	849.00000	2178.00000
1490.36935	1.54847	0.02828	49092.30051	893.89890	2257.10677	1488.15879	0.02829	48824.00000	887.00000	2243.00000
1496.56371	1.54859	0.02828	49778.04514	887.35808	2269.78386	1494.34916	0.02827	49521.00000	891.00000	2266.00000
1502.75806	1.54861	0.02827	50469.48096	863.36996	2265.92612	1500.53953	0.02828	50241.00000	875.00000	2271.00000
1508.95242	1.54851	0.02828	51158.04064	897.54966	2318.95044	1506.72990	0.02827	50884.00000	867.00000	2281.00000
1515.14677	1.54847	0.02828	51878.91086	902.58342	2344.35974	1512.92027	0.02829	51650.00000	933.00000	2368.00000
1521.34113	1.54873	0.02827	52577.57434	850.45197	2312.61102	1519.11064	0.02826	52288.00000	838.00000	2292.00000
1527.53548	1.54795	0.02832	53324.26188	911.75147	2395.92284	1525.30101	0.02830	53098.00000	907.00000	2384.00000
1533.72984	1.54750	0.02835	53919.19306	885.74627	2389.05245	1531.49138	0.02834	53680.00000	890.00000	2386.00000
1539.92419	1.54769	0.02833	54593.00479	874.24673	2396.31224	1537.68175	0.02835	54367.00000	884.00000	2400.00000
1546.11855	1.54810	0.02831	55208.54831	866.87961	2405.14288	1543.87212	0.02831	54973.00000	860.00000	2392.00000
1552.31290	1.54756	0.02834	55811.51925	888.84465	2445.48497	1550.06249	0.02832	55614.00000	887.00000	2437.00000
1558.50726	1.54683	0.02839	56431.29012	888.46797	2465.34646	1556.25286	0.02838	56172.00000	885.00000	2454.00000
1564.70161	1.54752	0.02835	57011.94896	890.80855	2481.58255	1562.44323	0.02838	56858.00000	895.00000	2483.00000
1570.89597	1.54805	0.02831	57413.89650	869.93991	2470.74529	1568.63360	0.02830	57231.00000	876.00000	2471.00000
1577.09032	1.54765	0.02834	57979.03512	879.44141	2497.43776	1574.82397	0.02834	57786.00000	871.00000	2484.00000
1583.28468	1.54788	0.02832	58450.11400	894.72676	2524.81386	1581.01434	0.02832	58279.00000	894.00000	2519.00000
1589.47903	1.54803	0.02831	58825.25008	895.18773	2535.30409	1587.20471	0.02833	58712.00000	892.00000	2530.00000
1595.67339	1.54871	0.02827	59146.72764	885.70009	2532.58964	1593.39508	0.02827	59009.00000	896.00000	2539.00000
1601.86774	1.54746	0.02835	59574.82387	893.37146	2556.94225	1599.58545	0.02830	59419.00000	877.00000	2534.00000
1608.06210	1.54725	0.02836	59920.72690	909.46488	2583.16728	1605.77582	0.02839	59809.00000	920.00000	2592.00000
1614.25645	1.54798	0.02832	60220.95853	887.30010	2567.37420	1611.96619	0.02830	60102.00000	882.00000	2558.00000
1620.45081	1.54753	0.02834	60438.83040	897.12192	2584.78330	1618.15656	0.02836	60391.00000	905.00000	2592.00000
1626.64516	1.54766	0.02834	60579.30309	884.35356	2575.87310	1624.34693	0.02831	60502.00000	878.00000	2566.00000
1632.83952	1.54715	0.02837	60848.95373	899.57786	2600.31682	1630.53730	0.02839	60754.00000	903.00000	2602.00000
1639.03387	1.54834	0.02829	60928.35809	870.27700	2569.44320	1636.72767	0.02831	60938.00000	879.00000	2579.00000
1645.22823	1.54714	0.02837	60778.06969	873.98452	2573.48779	1642.91804	0.02833	60849.00000	868.00000	2567.00000
1651.42258	1.54595	0.02845	59777.88214	914.49031	2588.98887	1649.10841	0.02844	60357.00000	896.00000	2587.00000
1657.61694	1.54870	0.02827	57642.70006	920.63108	2524.12482	1655.29878	0.02837	58452.00000	931.00000	2563.00000
1663.81129	1.55098	0.02812	56689.89176	898.36344	2467.21579	1661.48915	0.02812	56762.00000	897.00000	2468.00000
1670.00565	1.54982	0.02820	55553.85124	917.06266	2457.56220	1667.67952	0.02819	56404.00000	914.00000	2478.00000
1676.20000	1.55090	0.02813	52318.47966	879.24303	2326.07818	1673.86989	0.02816	53497.00000	901.00000	2382.00000
0.00000	0.00000	0.00000	0.00000	0.00000	0.00000	1680.06026	0.02813	50136.00000	860.00000	2246.00000
0.00000	0.00000	0.00000	0.00000	0.00000	0.00000	1686.25063	0.02832	46019.00000	923.00000	2200.00000
0.00000	0.00000	0.00000	0.00000	0.00000	0.00000	1692.44100	0.02832	46019.00000	923.00000	2200.00000
