'File 植物油_2_2016一月28_1116.xls
'Part ID 植物油_2
'Scan Created 2016/1/28 11:16:22
'Instrument S1-00205
'Version 1.5.7
'Integration Time 10100 s
'Number of Scans 50
'Units Absorbance
'Thermistor 48.07
Wavelength	Absorbance	Normalized	100%	dark	Raw 1	Native Wvl	Native Norm	Native 100%	Native dark	Native 1
908.10000	1.43420	0.03680	3595.82598	881.87120	981.96411	906.26400	0.03816	3684.00000	880.00000	987.00000
914.29435	1.45668	0.03494	3338.07467	866.26472	952.51399	912.45437	0.03481	3404.00000	876.00000	964.00000
920.48871	1.43655	0.03660	3265.72768	878.51909	965.93439	918.64474	0.03630	3257.00000	860.00000	947.00000
926.68306	1.44610	0.03580	3334.01990	918.74175	1005.17801	924.83511	0.03625	3324.00000	924.00000	1011.00000
932.87742	1.45259	0.03527	3389.36197	864.93184	954.01602	931.02548	0.03508	3355.00000	875.00000	962.00000
939.07177	1.44372	0.03600	3619.59224	884.95115	983.35644	937.21585	0.03604	3537.00000	873.00000	969.00000
945.26613	1.45939	0.03472	3856.44440	889.93616	992.93666	943.40622	0.03515	3802.00000	900.00000	1002.00000
951.46048	1.46357	0.03439	4005.12223	859.91735	968.11818	949.59659	0.03424	3955.00000	859.00000	965.00000
957.65484	1.46539	0.03425	4215.51392	893.73656	1007.43769	955.78696	0.03463	4148.00000	885.00000	998.00000
963.84919	1.48346	0.03285	4374.23623	878.43417	993.30389	961.97733	0.03301	4344.00000	891.00000	1005.00000
970.04355	1.47570	0.03344	4523.41127	896.06510	1017.37425	968.16770	0.03322	4453.00000	871.00000	990.00000
976.23790	1.47535	0.03347	4726.50938	925.04592	1052.25997	974.35807	0.03362	4693.00000	945.00000	1071.00000
982.43226	1.47845	0.03323	4835.26800	856.06452	988.31490	980.54844	0.03313	4778.00000	854.00000	984.00000
988.62661	1.46868	0.03399	5079.18703	905.14928	1047.02554	986.73881	0.03380	5013.00000	901.00000	1040.00000
994.82097	1.47348	0.03361	5288.13901	870.37131	1018.83030	992.92918	0.03391	5216.00000	881.00000	1028.00000
1001.01532	1.48014	0.03310	5547.24444	876.96250	1031.58569	999.11955	0.03302	5470.00000	867.00000	1019.00000
1007.20968	1.46952	0.03392	5821.73207	889.84005	1057.13880	1005.30992	0.03373	5729.00000	896.00000	1059.00000
1013.40403	1.47226	0.03371	6108.36987	875.33513	1051.71023	1011.50029	0.03391	6031.00000	870.00000	1045.00000
1019.59839	1.47455	0.03353	6349.51155	919.49996	1101.62759	1017.69066	0.03339	6269.00000	908.00000	1087.00000
1025.79274	1.47349	0.03361	6610.09178	908.88037	1100.44752	1023.88103	0.03384	6536.00000	921.00000	1111.00000
1031.98710	1.48235	0.03293	6863.27600	885.10537	1082.04480	1030.07140	0.03292	6776.00000	883.00000	1077.00000
1038.18145	1.47517	0.03348	7137.95533	879.30949	1088.84561	1036.26177	0.03339	7062.00000	892.00000	1098.00000
1044.37581	1.47690	0.03335	7415.45215	852.78191	1071.64636	1042.45214	0.03341	7313.00000	848.00000	1064.00000
1050.57016	1.47612	0.03341	7763.75520	889.74850	1119.43063	1048.64251	0.03333	7664.00000	884.00000	1110.00000
1056.76452	1.47679	0.03336	8043.98752	873.54577	1112.70840	1054.83288	0.03349	7958.00000	881.00000	1118.00000
1062.95887	1.47959	0.03314	8346.47029	875.55305	1123.20660	1061.02325	0.03307	8246.00000	868.00000	1112.00000
1069.15323	1.47449	0.03354	8651.05608	883.28349	1143.75489	1067.21362	0.03349	8564.00000	890.00000	1147.00000
1075.34758	1.47512	0.03349	8931.01237	859.29405	1129.61253	1073.40399	0.03348	8836.00000	860.00000	1127.00000
1081.54194	1.47372	0.03360	9243.78719	871.40916	1152.67774	1079.59436	0.03358	9149.00000	870.00000	1148.00000
1087.73629	1.47435	0.03355	9580.78777	901.76500	1192.92644	1085.78473	0.03357	9462.00000	883.00000	1171.00000
1093.93065	1.47653	0.03338	9940.76391	922.65990	1223.66059	1091.97510	0.03345	9841.00000	933.00000	1231.00000
1100.12500	1.47846	0.03323	10254.38783	869.25749	1181.14370	1098.16547	0.03324	10144.00000	878.00000	1186.00000
1106.31935	1.47768	0.03329	10641.04469	875.00467	1200.10952	1104.35584	0.03328	10519.00000	873.00000	1194.00000
1112.51371	1.47668	0.03337	11015.80766	872.41348	1210.88138	1110.54621	0.03332	10897.00000	874.00000	1208.00000
1118.70806	1.47586	0.03343	11401.60672	872.77123	1224.74540	1116.73658	0.03345	11276.00000	871.00000	1219.00000
1124.90242	1.47751	0.03330	11814.30888	885.70510	1249.66895	1122.92695	0.03334	11680.00000	881.00000	1241.00000
1131.09677	1.47817	0.03325	12236.17715	886.26842	1263.67954	1129.11732	0.03326	12103.00000	890.00000	1263.00000
1137.29113	1.47731	0.03332	12606.57558	854.95675	1246.52422	1135.30769	0.03327	12498.00000	867.00000	1254.00000
1143.48548	1.47662	0.03337	12995.31207	851.62722	1256.85993	1141.49806	0.03339	12851.00000	843.00000	1244.00000
1149.67984	1.47639	0.03339	13491.13514	894.93569	1315.54056	1147.68843	0.03333	13335.00000	884.00000	1299.00000
1155.87419	1.47443	0.03354	13953.07917	885.15852	1323.43271	1153.87880	0.03354	13805.00000	896.00000	1329.00000
1162.06855	1.47537	0.03347	14446.12872	862.12568	1316.77934	1160.06917	0.03347	14279.00000	862.00000	1311.00000
1168.26290	1.47588	0.03343	14959.02414	891.75197	1361.98047	1166.25954	0.03348	14800.00000	881.00000	1347.00000
1174.45726	1.47662	0.03337	15420.71473	898.79570	1383.43711	1172.44991	0.03333	15273.00000	903.00000	1382.00000
1180.65161	1.47413	0.03356	15876.41905	861.08105	1365.04012	1178.64028	0.03353	15728.00000	875.00000	1373.00000
1186.84597	1.47485	0.03351	16371.22020	852.06070	1372.07222	1184.83065	0.03354	16201.00000	846.00000	1361.00000
1193.04032	1.47449	0.03354	16894.18264	880.38932	1417.43532	1191.02102	0.03349	16730.00000	875.00000	1406.00000
1199.23468	1.47298	0.03365	17400.55626	883.09277	1438.93357	1197.21139	0.03365	17229.00000	882.00000	1432.00000
1205.42903	1.47403	0.03357	17922.85290	876.52702	1448.80893	1203.40176	0.03360	17758.00000	882.00000	1449.00000
1211.62339	1.47462	0.03353	18412.23826	867.41129	1455.61183	1209.59213	0.03354	18250.00000	866.00000	1449.00000
1217.81774	1.47389	0.03358	18946.64823	877.09601	1483.92945	1215.78250	0.03354	18763.00000	876.00000	1476.00000
1224.01210	1.47326	0.03363	19522.38589	879.59709	1506.55659	1221.97287	0.03365	19334.00000	877.00000	1498.00000
1230.20645	1.47390	0.03358	20046.82356	877.27220	1521.02869	1228.16324	0.03358	19884.00000	882.00000	1520.00000
1236.40081	1.47329	0.03363	20578.92550	894.33634	1556.29881	1234.35361	0.03363	20387.00000	878.00000	1534.00000
1242.59516	1.47305	0.03365	21116.97255	904.50586	1584.61607	1240.54398	0.03363	20962.00000	919.00000	1593.00000
1248.78952	1.47260	0.03368	21555.61107	852.78714	1550.09532	1246.73435	0.03369	21399.00000	858.00000	1550.00000
1254.98387	1.47291	0.03366	22112.97196	897.03001	1611.10916	1252.92472	0.03365	21917.00000	878.00000	1586.00000
1261.17823	1.47121	0.03379	22669.33634	902.45329	1637.97512	1259.11509	0.03373	22498.00000	915.00000	1643.00000
1267.37258	1.47106	0.03380	23144.86310	840.51764	1594.41510	1265.30546	0.03385	22985.00000	857.00000	1606.00000
1273.56694	1.47175	0.03375	23720.39347	860.92978	1632.43477	1271.49583	0.03371	23506.00000	841.00000	1605.00000
1279.76129	1.47008	0.03388	24372.77955	913.59084	1708.31910	1277.68620	0.03388	24166.00000	906.00000	1694.00000
1285.95565	1.47028	0.03386	24945.52650	893.87771	1708.35482	1283.87657	0.03384	24754.00000	903.00000	1710.00000
1292.15000	1.46928	0.03394	25532.41484	877.59600	1714.36597	1290.06694	0.03394	25332.00000	880.00000	1710.00000
1298.34435	1.46944	0.03393	26175.67024	884.75253	1742.85261	1296.25731	0.03391	25949.00000	881.00000	1731.00000
1304.53871	1.46929	0.03394	26805.92834	868.00311	1748.31519	1302.44769	0.03397	26610.00000	881.00000	1755.00000
1310.73306	1.47024	0.03387	27432.03993	867.23944	1766.89903	1308.63806	0.03386	27196.00000	853.00000	1745.00000
1316.92742	1.46911	0.03395	28161.82657	892.73544	1818.62080	1314.82843	0.03393	27925.00000	899.00000	1816.00000
1323.12177	1.46822	0.03402	28842.74169	862.95220	1814.93669	1321.01880	0.03399	28606.00000	864.00000	1807.00000
1329.31613	1.46717	0.03411	29519.54369	871.94640	1848.99955	1327.20917	0.03409	29300.00000	874.00000	1843.00000
1335.51048	1.46718	0.03411	30183.25265	863.66515	1863.61449	1333.39954	0.03411	29944.00000	862.00000	1854.00000
1341.70484	1.46705	0.03412	30926.51890	893.32929	1917.91078	1339.58991	0.03410	30673.00000	881.00000	1897.00000
1347.89919	1.46619	0.03418	31587.63481	894.88004	1944.05750	1345.78028	0.03416	31380.00000	904.00000	1945.00000
1354.09355	1.46656	0.03415	32227.78710	859.30420	1930.63763	1351.97065	0.03419	31988.00000	867.00000	1931.00000
1360.28790	1.46674	0.03414	32929.95072	867.11433	1961.75006	1358.16102	0.03410	32704.00000	861.00000	1947.00000
1366.48226	1.46502	0.03427	33569.06337	866.55753	1987.41376	1364.35139	0.03425	33341.00000	873.00000	1985.00000
1372.67661	1.46418	0.03434	34261.83351	843.87902	1991.51850	1370.54176	0.03430	34024.00000	848.00000	1986.00000
1378.87097	1.46294	0.03444	34838.67465	870.52277	2040.36741	1376.73213	0.03442	34668.00000	855.00000	2019.00000
1385.06532	1.46266	0.03446	35121.03064	877.10458	2057.21456	1382.92250	0.03444	35059.00000	888.00000	2065.00000
1391.25968	1.46150	0.03455	35289.43299	872.38486	2061.62986	1389.11287	0.03452	35214.00000	858.00000	2044.00000
1397.45403	1.46116	0.03458	35460.60298	899.47130	2094.61994	1395.30324	0.03459	35427.00000	906.00000	2100.00000
1403.64839	1.46076	0.03461	35666.10671	869.36576	2073.79338	1401.49361	0.03458	35545.00000	870.00000	2069.00000
1409.84274	1.45963	0.03470	36323.03255	883.09719	2112.96878	1407.68398	0.03469	36050.00000	883.00000	2103.00000
1416.03710	1.45936	0.03472	37284.68636	884.03189	2148.05323	1413.87435	0.03470	36926.00000	879.00000	2130.00000
1422.23145	1.45882	0.03477	38329.42739	892.53935	2194.12867	1420.06472	0.03477	37970.00000	895.00000	2184.00000
1428.42581	1.45856	0.03479	39434.74114	878.71439	2220.06958	1426.25509	0.03477	39022.00000	881.00000	2207.00000
1434.62016	1.45789	0.03484	40575.07439	880.06733	2263.11643	1432.44546	0.03484	40203.00000	880.00000	2250.00000
1440.81452	1.45779	0.03485	41493.68414	879.47622	2294.89669	1438.63583	0.03483	41184.00000	879.00000	2283.00000
1447.00887	1.45668	0.03494	42510.04768	905.41306	2359.08633	1444.82620	0.03491	42113.00000	891.00000	2330.00000
1453.20323	1.45693	0.03492	43543.72896	892.86717	2382.20201	1451.01657	0.03495	43229.00000	914.00000	2393.00000
1459.39758	1.45718	0.03490	44405.02794	864.61268	2384.17955	1457.20694	0.03487	44070.00000	855.00000	2362.00000
1465.59194	1.45592	0.03500	45481.34063	906.97918	2467.11528	1463.39731	0.03498	45094.00000	903.00000	2449.00000
1471.78629	1.45578	0.03501	46480.51435	890.87025	2487.09525	1469.58768	0.03500	46150.00000	894.00000	2478.00000
1477.98065	1.45538	0.03504	47320.91755	868.50781	2496.40409	1475.77805	0.03504	47029.00000	883.00000	2500.00000
1484.17500	1.45474	0.03510	48225.65661	857.63729	2520.10398	1481.96842	0.03506	47881.00000	849.00000	2498.00000
1490.36935	1.45355	0.03519	49092.30051	893.89890	2590.10001	1488.15879	0.03517	48824.00000	887.00000	2573.00000
1496.56371	1.45330	0.03521	49778.04514	887.35808	2608.95534	1494.34916	0.03520	49521.00000	891.00000	2603.00000
1502.75806	1.45249	0.03528	50469.48096	863.36996	2613.41140	1500.53953	0.03525	50241.00000	875.00000	2615.00000
1508.95242	1.45118	0.03539	51158.04064	897.54966	2676.04233	1506.72990	0.03535	50884.00000	867.00000	2635.00000
1515.14677	1.45051	0.03544	51878.91086	902.58342	2709.16565	1512.92027	0.03543	51650.00000	933.00000	2730.00000
1521.34113	1.45066	0.03543	52577.57434	850.45197	2682.99654	1519.11064	0.03543	52288.00000	838.00000	2661.00000
1527.53548	1.44994	0.03549	53324.26188	911.75147	2771.67181	1525.30101	0.03545	53098.00000	907.00000	2757.00000
1533.72984	1.44839	0.03561	53919.19306	885.74627	2774.42421	1531.49138	0.03557	53680.00000	890.00000	2768.00000
1539.92419	1.44822	0.03563	54593.00479	874.24673	2788.07575	1537.68175	0.03564	54367.00000	884.00000	2790.00000
1546.11855	1.44763	0.03568	55208.54831	866.87961	2805.57520	1543.87212	0.03563	54973.00000	860.00000	2788.00000
1552.31290	1.44551	0.03585	55811.51925	888.84465	2857.82296	1550.06249	0.03580	55614.00000	887.00000	2846.00000
1558.50726	1.44474	0.03591	56431.29012	888.46797	2883.23030	1556.25286	0.03590	56172.00000	885.00000	2870.00000
1564.70161	1.44466	0.03592	57011.94896	890.80855	2906.70856	1562.44323	0.03592	56858.00000	895.00000	2905.00000
1570.89597	1.44386	0.03599	57413.89650	869.93991	2904.77962	1568.63360	0.03595	57231.00000	876.00000	2902.00000
1577.09032	1.44276	0.03608	57979.03512	879.44141	2939.46078	1574.82397	0.03605	57786.00000	871.00000	2923.00000
1583.28468	1.44214	0.03613	58450.11400	894.72676	2974.16131	1581.01434	0.03611	58279.00000	894.00000	2966.00000
1589.47903	1.44163	0.03617	58825.25008	895.18773	2990.63482	1587.20471	0.03616	58712.00000	892.00000	2983.00000
1595.67339	1.44112	0.03621	59146.72764	885.70009	2995.60443	1593.39508	0.03619	59009.00000	896.00000	2999.00000
1601.86774	1.43984	0.03632	59574.82387	893.37146	3024.75724	1599.58545	0.03628	59419.00000	877.00000	3001.00000
1608.06210	1.43954	0.03635	59920.72690	909.46488	3054.30866	1605.77582	0.03636	59809.00000	920.00000	3061.00000
1614.25645	1.43918	0.03638	60220.95853	887.30010	3045.66164	1611.96619	0.03634	60102.00000	882.00000	3034.00000
1620.45081	1.43839	0.03644	60438.83040	897.12192	3066.98722	1618.15656	0.03645	60391.00000	905.00000	3073.00000
1626.64516	1.43814	0.03646	60579.30309	884.35356	3061.04323	1624.34693	0.03643	60502.00000	878.00000	3050.00000
1632.83952	1.43660	0.03659	60848.95373	899.57786	3093.32861	1630.53730	0.03656	60754.00000	903.00000	3091.00000
1639.03387	1.43636	0.03661	60928.35809	870.27700	3069.21035	1636.72767	0.03661	60938.00000	879.00000	3078.00000
1645.22823	1.43576	0.03666	60778.06969	873.98452	3070.34212	1642.91804	0.03663	60849.00000	868.00000	3065.00000
1651.42258	1.43376	0.03683	59777.88214	914.49031	3082.59242	1649.10841	0.03676	60357.00000	896.00000	3082.00000
1657.61694	1.43242	0.03695	57642.70006	920.63108	3016.33896	1655.29878	0.03693	58452.00000	931.00000	3055.00000
1663.81129	1.43242	0.03695	56689.89176	898.36344	2959.71957	1661.48915	0.03695	56762.00000	897.00000	2961.00000
1670.00565	1.43091	0.03708	55553.85124	917.06266	2942.62618	1667.67952	0.03700	56404.00000	914.00000	2967.00000
1676.20000	1.42894	0.03724	52318.47966	879.24303	2795.22453	1673.86989	0.03721	53497.00000	901.00000	2858.00000
0.00000	0.00000	0.00000	0.00000	0.00000	0.00000	1680.06026	0.03730	50136.00000	860.00000	2698.00000
0.00000	0.00000	0.00000	0.00000	0.00000	0.00000	1686.25063	0.03752	46019.00000	923.00000	2615.00000
0.00000	0.00000	0.00000	0.00000	0.00000	0.00000	1692.44100	0.03752	46019.00000	923.00000	2615.00000
