'File 植物油_1_2016一月28_1116.xls
'Part ID 植物油_1
'Scan Created 2016/1/28 11:16:17
'Instrument S1-00205
'Version 1.5.7
'Integration Time 10100 s
'Number of Scans 50
'Units Absorbance
'Thermistor 48.07
Wavelength	Absorbance	Normalized	100%	dark	Raw 1	Native Wvl	Native Norm	Native 100%	Native dark	Native 1
908.10000	1.43918	0.03638	3595.82598	881.87120	980.77605	906.26400	0.03745	3684.00000	880.00000	985.00000
914.29435	1.45719	0.03490	3338.07467	866.26472	952.44076	912.45437	0.03481	3404.00000	876.00000	964.00000
920.48871	1.44308	0.03605	3265.72768	878.51909	964.61482	918.64474	0.03588	3257.00000	860.00000	946.00000
926.68306	1.44745	0.03569	3334.01990	918.74175	1004.93083	924.83511	0.03583	3324.00000	924.00000	1010.00000
932.87742	1.45027	0.03546	3389.36197	864.93184	954.46252	931.02548	0.03548	3355.00000	875.00000	963.00000
939.07177	1.45527	0.03505	3619.59224	884.95115	980.78931	937.21585	0.03529	3537.00000	873.00000	967.00000
945.26613	1.46393	0.03436	3856.44440	889.93616	991.87349	943.40622	0.03446	3802.00000	900.00000	1000.00000
951.46048	1.45896	0.03476	4005.12223	859.91735	969.26510	949.59659	0.03456	3955.00000	859.00000	966.00000
957.65484	1.46817	0.03403	4215.51392	893.73656	1006.70999	955.78696	0.03463	4148.00000	885.00000	998.00000
963.84919	1.49152	0.03225	4374.23623	878.43417	991.18923	961.97733	0.03244	4344.00000	891.00000	1003.00000
970.04355	1.47549	0.03346	4523.41127	896.06510	1017.45268	968.16770	0.03294	4453.00000	871.00000	989.00000
976.23790	1.46921	0.03395	4726.50938	925.04592	1054.05219	974.35807	0.03415	4693.00000	945.00000	1073.00000
982.43226	1.48031	0.03309	4835.26800	856.06452	987.76008	980.54844	0.03313	4778.00000	854.00000	984.00000
988.62661	1.47184	0.03374	5079.18703	905.14928	1045.99271	986.73881	0.03356	5013.00000	901.00000	1039.00000
994.82097	1.47635	0.03339	5288.13901	870.37131	1017.85311	992.92918	0.03368	5216.00000	881.00000	1027.00000
1001.01532	1.48325	0.03287	5547.24444	876.96250	1030.49846	999.11955	0.03280	5470.00000	867.00000	1018.00000
1007.20968	1.47697	0.03334	5821.73207	889.84005	1054.26284	1005.30992	0.03331	5729.00000	896.00000	1057.00000
1013.40403	1.48047	0.03308	6108.36987	875.33513	1048.43265	1011.50029	0.03313	6031.00000	870.00000	1041.00000
1019.59839	1.47673	0.03336	6349.51155	919.49996	1100.69472	1017.69066	0.03320	6269.00000	908.00000	1086.00000
1025.79274	1.47831	0.03324	6610.09178	908.88037	1098.33960	1023.88103	0.03348	6536.00000	921.00000	1109.00000
1031.98710	1.48258	0.03292	6863.27600	885.10537	1081.95457	1030.07140	0.03275	6776.00000	883.00000	1076.00000
1038.18145	1.47438	0.03354	7137.95533	879.30949	1089.20692	1036.26177	0.03355	7062.00000	892.00000	1099.00000
1044.37581	1.48190	0.03297	7415.45215	852.78191	1069.15472	1042.45214	0.03310	7313.00000	848.00000	1062.00000
1050.57016	1.47868	0.03321	7763.75520	889.74850	1118.08162	1048.64251	0.03304	7664.00000	884.00000	1108.00000
1056.76452	1.47646	0.03338	8043.98752	873.54577	1112.89571	1054.83288	0.03349	7958.00000	881.00000	1118.00000
1062.95887	1.48370	0.03283	8346.47029	875.55305	1120.86168	1061.02325	0.03294	8246.00000	868.00000	1111.00000
1069.15323	1.48309	0.03288	8651.05608	883.28349	1138.65289	1067.21362	0.03284	8564.00000	890.00000	1142.00000
1075.34758	1.47757	0.03330	8931.01237	859.29405	1128.10486	1073.40399	0.03310	8836.00000	860.00000	1124.00000
1081.54194	1.47538	0.03347	9243.78719	871.40916	1151.56433	1079.59436	0.03358	9149.00000	870.00000	1148.00000
1087.73629	1.47984	0.03312	9580.78777	901.76500	1189.30021	1085.78473	0.03310	9462.00000	883.00000	1167.00000
1093.93065	1.47729	0.03332	9940.76391	922.65990	1223.11031	1091.97510	0.03334	9841.00000	933.00000	1230.00000
1100.12500	1.48006	0.03311	10254.38783	869.25749	1180.00856	1098.16547	0.03313	10144.00000	878.00000	1185.00000
1106.31935	1.47890	0.03320	10641.04469	875.00467	1199.20024	1104.35584	0.03317	10519.00000	873.00000	1193.00000
1112.51371	1.47830	0.03324	11015.80766	872.41348	1209.62118	1110.54621	0.03322	10897.00000	874.00000	1207.00000
1118.70806	1.47863	0.03322	11401.60672	872.77123	1222.50271	1116.73658	0.03325	11276.00000	871.00000	1217.00000
1124.90242	1.47918	0.03318	11814.30888	885.70510	1248.28319	1122.92695	0.03315	11680.00000	881.00000	1239.00000
1131.09677	1.47795	0.03327	12236.17715	886.26842	1263.86142	1129.11732	0.03326	12103.00000	890.00000	1263.00000
1137.29113	1.47728	0.03332	12606.57558	854.95675	1246.55166	1135.30769	0.03327	12498.00000	867.00000	1254.00000
1143.48548	1.47696	0.03335	12995.31207	851.62722	1256.53457	1141.49806	0.03339	12851.00000	843.00000	1244.00000
1149.67984	1.47733	0.03332	13491.13514	894.93569	1314.64183	1147.68843	0.03325	13335.00000	884.00000	1298.00000
1155.87419	1.47396	0.03358	13953.07917	885.15852	1323.90899	1153.87880	0.03354	13805.00000	896.00000	1329.00000
1162.06855	1.47455	0.03353	14446.12872	862.12568	1317.63899	1160.06917	0.03354	14279.00000	862.00000	1312.00000
1168.26290	1.47632	0.03340	14959.02414	891.75197	1361.50534	1166.25954	0.03348	14800.00000	881.00000	1347.00000
1174.45726	1.47737	0.03331	15420.71473	898.79570	1382.60509	1172.44991	0.03326	15273.00000	903.00000	1381.00000
1180.65161	1.47381	0.03359	15876.41905	861.08105	1365.40757	1178.64028	0.03353	15728.00000	875.00000	1373.00000
1186.84597	1.47379	0.03359	16371.22020	852.06070	1373.34949	1184.83065	0.03360	16201.00000	846.00000	1362.00000
1193.04032	1.47436	0.03355	16894.18264	880.38932	1417.58042	1191.02102	0.03355	16730.00000	875.00000	1407.00000
1199.23468	1.47317	0.03364	17400.55626	883.09277	1438.72504	1197.21139	0.03358	17229.00000	882.00000	1431.00000
1205.42903	1.47252	0.03369	17922.85290	876.52702	1450.76775	1203.40176	0.03372	17758.00000	882.00000	1451.00000
1211.62339	1.47371	0.03360	18412.23826	867.41129	1456.87244	1209.59213	0.03359	18250.00000	866.00000	1450.00000
1217.81774	1.47282	0.03366	18946.64823	877.09601	1485.39680	1215.78250	0.03366	18763.00000	876.00000	1478.00000
1224.01210	1.47319	0.03364	19522.38589	879.59709	1506.68044	1221.97287	0.03365	19334.00000	877.00000	1498.00000
1230.20645	1.47332	0.03363	20046.82356	877.27220	1521.87642	1228.16324	0.03363	19884.00000	882.00000	1521.00000
1236.40081	1.47333	0.03363	20578.92550	894.33634	1556.23763	1234.35361	0.03363	20387.00000	878.00000	1534.00000
1242.59516	1.47326	0.03363	21116.97255	904.50586	1584.27658	1240.54398	0.03363	20962.00000	919.00000	1593.00000
1248.78952	1.47310	0.03364	21555.61107	852.78714	1549.30076	1246.73435	0.03364	21399.00000	858.00000	1549.00000
1254.98387	1.47287	0.03366	22112.97196	897.03001	1611.17916	1252.92472	0.03365	21917.00000	878.00000	1586.00000
1261.17823	1.47106	0.03380	22669.33634	902.45329	1638.22920	1259.11509	0.03373	22498.00000	915.00000	1643.00000
1267.37258	1.47039	0.03385	23144.86310	840.51764	1595.58805	1265.30546	0.03389	22985.00000	857.00000	1607.00000
1273.56694	1.47129	0.03378	23720.39347	860.92978	1633.22975	1271.49583	0.03375	23506.00000	841.00000	1606.00000
1279.76129	1.46788	0.03405	24372.77955	913.59084	1712.38478	1277.68620	0.03396	24166.00000	906.00000	1696.00000
1285.95565	1.46846	0.03400	24945.52650	893.87771	1711.72727	1283.87657	0.03409	24754.00000	903.00000	1716.00000
1292.15000	1.47087	0.03382	25532.41484	877.59600	1711.35641	1290.06694	0.03382	25332.00000	880.00000	1707.00000
1298.34435	1.46818	0.03403	26175.67024	884.75253	1745.32415	1296.25731	0.03395	25949.00000	881.00000	1732.00000
1304.53871	1.46809	0.03403	26805.92834	868.00311	1750.74490	1302.44769	0.03409	26610.00000	881.00000	1758.00000
1310.73306	1.46991	0.03389	27432.03993	867.23944	1767.56850	1308.63806	0.03390	27196.00000	853.00000	1746.00000
1316.92742	1.46840	0.03401	28161.82657	892.73544	1820.13347	1314.82843	0.03397	27925.00000	899.00000	1817.00000
1323.12177	1.46754	0.03408	28842.74169	862.95220	1816.42164	1321.01880	0.03406	28606.00000	864.00000	1809.00000
1329.31613	1.46731	0.03409	29519.54369	871.94640	1848.68409	1327.20917	0.03409	29300.00000	874.00000	1843.00000
1335.51048	1.46701	0.03412	30183.25265	863.66515	1864.00703	1333.39954	0.03411	29944.00000	862.00000	1854.00000
1341.70484	1.46661	0.03415	30926.51890	893.32929	1918.94882	1339.58991	0.03414	30673.00000	881.00000	1898.00000
1347.89919	1.46571	0.03422	31587.63481	894.88004	1945.22704	1345.78028	0.03419	31380.00000	904.00000	1946.00000
1354.09355	1.46645	0.03416	32227.78710	859.30420	1930.87986	1351.97065	0.03422	31988.00000	867.00000	1932.00000
1360.28790	1.46607	0.03419	32929.95072	867.11433	1963.47551	1358.16102	0.03410	32704.00000	861.00000	1947.00000
1366.48226	1.46421	0.03434	33569.06337	866.55753	1989.47999	1364.35139	0.03437	33341.00000	873.00000	1989.00000
1372.67661	1.46540	0.03425	34261.83351	843.87902	1988.33311	1370.54176	0.03421	34024.00000	848.00000	1983.00000
1378.87097	1.46321	0.03442	34838.67465	870.52277	2039.63480	1376.73213	0.03440	34668.00000	855.00000	2018.00000
1385.06532	1.46280	0.03445	35121.03064	877.10458	2056.85251	1382.92250	0.03442	35059.00000	888.00000	2064.00000
1391.25968	1.46122	0.03458	35289.43299	872.38486	2062.39843	1389.11287	0.03455	35214.00000	858.00000	2045.00000
1397.45403	1.46098	0.03460	35460.60298	899.47130	2095.11576	1395.30324	0.03459	35427.00000	906.00000	2100.00000
1403.64839	1.46000	0.03467	35666.10671	869.36576	2075.91928	1401.49361	0.03464	35545.00000	870.00000	2071.00000
1409.84274	1.45961	0.03470	36323.03255	883.09719	2113.00430	1407.68398	0.03472	36050.00000	883.00000	2104.00000
1416.03710	1.45956	0.03471	37284.68636	884.03189	2147.49558	1413.87435	0.03468	36926.00000	879.00000	2129.00000
1422.23145	1.45835	0.03481	38329.42739	892.53935	2195.53467	1420.06472	0.03479	37970.00000	895.00000	2185.00000
1428.42581	1.45846	0.03480	39434.74114	878.71439	2220.36545	1426.25509	0.03479	39022.00000	881.00000	2208.00000
1434.62016	1.45829	0.03481	40575.07439	880.06733	2261.85721	1432.44546	0.03481	40203.00000	880.00000	2249.00000
1440.81452	1.45800	0.03483	41493.68414	879.47622	2294.22910	1438.63583	0.03481	41184.00000	879.00000	2282.00000
1447.00887	1.45660	0.03495	42510.04768	905.41306	2359.35662	1444.82620	0.03491	42113.00000	891.00000	2330.00000
1453.20323	1.45715	0.03490	43543.72896	892.86717	2381.42712	1451.01657	0.03495	43229.00000	914.00000	2393.00000
1459.39758	1.45770	0.03486	44405.02794	864.61268	2382.36159	1457.20694	0.03483	44070.00000	855.00000	2360.00000
1465.59194	1.45622	0.03498	45481.34063	906.97918	2466.00686	1463.39731	0.03496	45094.00000	903.00000	2448.00000
1471.78629	1.45642	0.03496	46480.51435	890.87025	2484.72525	1469.58768	0.03496	46150.00000	894.00000	2476.00000
1477.98065	1.45565	0.03502	47320.91755	868.50781	2495.39777	1475.77805	0.03500	47029.00000	883.00000	2498.00000
1484.17500	1.45435	0.03513	48225.65661	857.63729	2521.57141	1481.96842	0.03508	47881.00000	849.00000	2499.00000
1490.36935	1.45349	0.03520	49092.30051	893.89890	2590.34283	1488.15879	0.03519	48824.00000	887.00000	2574.00000
1496.56371	1.45359	0.03519	49778.04514	887.35808	2607.79081	1494.34916	0.03518	49521.00000	891.00000	2602.00000
1502.75806	1.45276	0.03526	50469.48096	863.36996	2612.31186	1500.53953	0.03523	50241.00000	875.00000	2614.00000
1508.95242	1.45188	0.03533	51158.04064	897.54966	2673.14288	1506.72990	0.03531	50884.00000	867.00000	2633.00000
1515.14677	1.45139	0.03537	51878.91086	902.58342	2705.52451	1512.92027	0.03535	51650.00000	933.00000	2726.00000
1521.34113	1.45035	0.03545	52577.57434	850.45197	2684.34630	1519.11064	0.03541	52288.00000	838.00000	2660.00000
1527.53548	1.44920	0.03555	53324.26188	911.75147	2774.82173	1525.30101	0.03552	53098.00000	907.00000	2761.00000
1533.72984	1.44857	0.03560	53919.19306	885.74627	2773.64647	1531.49138	0.03557	53680.00000	890.00000	2768.00000
1539.92419	1.44797	0.03565	54593.00479	874.24673	2789.17680	1537.68175	0.03564	54367.00000	884.00000	2790.00000
1546.11855	1.44741	0.03569	55208.54831	866.87961	2806.52705	1543.87212	0.03567	54973.00000	860.00000	2790.00000
1552.31290	1.44617	0.03580	55811.51925	888.84465	2854.84182	1550.06249	0.03576	55614.00000	887.00000	2844.00000
1558.50726	1.44469	0.03592	56431.29012	888.46797	2883.48161	1556.25286	0.03587	56172.00000	885.00000	2868.00000
1564.70161	1.44429	0.03595	57011.94896	890.80855	2908.40918	1562.44323	0.03597	56858.00000	895.00000	2908.00000
1570.89597	1.44434	0.03595	57413.89650	869.93991	2902.50629	1568.63360	0.03592	57231.00000	876.00000	2900.00000
1577.09032	1.44297	0.03606	57979.03512	879.44141	2938.48478	1574.82397	0.03604	57786.00000	871.00000	2922.00000
1583.28468	1.44266	0.03609	58450.11400	894.72676	2971.68037	1581.01434	0.03607	58279.00000	894.00000	2964.00000
1589.47903	1.44177	0.03616	58825.25008	895.18773	2989.93964	1587.20471	0.03613	58712.00000	892.00000	2981.00000
1595.67339	1.44105	0.03622	59146.72764	885.70009	2995.93957	1593.39508	0.03621	59009.00000	896.00000	3000.00000
1601.86774	1.44038	0.03628	59574.82387	893.37146	3022.11939	1599.58545	0.03625	59419.00000	877.00000	2999.00000
1608.06210	1.43972	0.03633	59920.72690	909.46488	3053.43438	1605.77582	0.03632	59809.00000	920.00000	3059.00000
1614.25645	1.43890	0.03640	60220.95853	887.30010	3047.04649	1611.96619	0.03636	60102.00000	882.00000	3035.00000
1620.45081	1.43828	0.03645	60438.83040	897.12192	3067.51825	1618.15656	0.03646	60391.00000	905.00000	3074.00000
1626.64516	1.43812	0.03647	60579.30309	884.35356	3061.16342	1624.34693	0.03643	60502.00000	878.00000	3050.00000
1632.83952	1.43626	0.03662	60848.95373	899.57786	3095.04343	1630.53730	0.03657	60754.00000	903.00000	3092.00000
1639.03387	1.43615	0.03663	60928.35809	870.27700	3070.25389	1636.72767	0.03665	60938.00000	879.00000	3080.00000
1645.22823	1.43603	0.03664	60778.06969	873.98452	3068.96504	1642.91804	0.03661	60849.00000	868.00000	3064.00000
1651.42258	1.43338	0.03687	59777.88214	914.49031	3084.44288	1649.10841	0.03676	60357.00000	896.00000	3082.00000
1657.61694	1.43174	0.03700	57642.70006	920.63108	3019.65474	1655.29878	0.03700	58452.00000	931.00000	3059.00000
1663.81129	1.43230	0.03696	56689.89176	898.36344	2960.30633	1661.48915	0.03696	56762.00000	897.00000	2962.00000
1670.00565	1.43069	0.03709	55553.85124	917.06266	2943.69752	1667.67952	0.03702	56404.00000	914.00000	2968.00000
1676.20000	1.42868	0.03727	52318.47966	879.24303	2796.35266	1673.86989	0.03723	53497.00000	901.00000	2859.00000
0.00000	0.00000	0.00000	0.00000	0.00000	0.00000	1680.06026	0.03732	50136.00000	860.00000	2699.00000
0.00000	0.00000	0.00000	0.00000	0.00000	0.00000	1686.25063	0.03750	46019.00000	923.00000	2614.00000
0.00000	0.00000	0.00000	0.00000	0.00000	0.00000	1692.44100	0.03750	46019.00000	923.00000	2614.00000
