'File 植物油_3_2016一月28_1116.xls
'Part ID 植物油_3
'Scan Created 2016/1/28 11:16:30
'Instrument S1-00205
'Version 1.5.7
'Integration Time 10100 s
'Number of Scans 50
'Units Absorbance
'Thermistor 48.07
Wavelength	Absorbance	Normalized	100%	dark	Raw 1	Native Wvl	Native Norm	Native 100%	Native dark	Native 1
908.10000	1.52910	0.02957	3595.82598	881.87120	962.32552	906.26400	0.03067	3684.00000	880.00000	966.00000
914.29435	1.54799	0.02831	3338.07467	866.26472	936.15290	912.45437	0.02809	3404.00000	876.00000	947.00000
920.48871	1.52579	0.02980	3265.72768	878.51909	949.70345	918.64474	0.02962	3257.00000	860.00000	931.00000
926.68306	1.54218	0.02870	3334.01990	918.74175	988.00853	924.83511	0.02917	3324.00000	924.00000	994.00000
932.87742	1.54323	0.02863	3389.36197	864.93184	937.27125	931.02548	0.02823	3355.00000	875.00000	945.00000
939.07177	1.53082	0.02946	3619.59224	884.95115	965.42250	937.21585	0.02965	3537.00000	873.00000	952.00000
945.26613	1.55236	0.02803	3856.44440	889.93616	973.12614	943.40622	0.02826	3802.00000	900.00000	982.00000
951.46048	1.54043	0.02881	4005.12223	859.91735	950.55994	949.59659	0.02842	3955.00000	859.00000	947.00000
957.65484	1.54333	0.02862	4215.51392	893.73656	988.74103	955.78696	0.02911	4148.00000	885.00000	980.00000
963.84919	1.56604	0.02716	4374.23623	878.43417	973.42961	961.97733	0.02722	4344.00000	891.00000	985.00000
970.04355	1.54977	0.02820	4523.41127	896.06510	998.34677	968.16770	0.02792	4453.00000	871.00000	971.00000
976.23790	1.55183	0.02807	4726.50938	925.04592	1031.71921	974.35807	0.02828	4693.00000	945.00000	1051.00000
982.43226	1.56073	0.02750	4835.26800	856.06452	965.49431	980.54844	0.02752	4778.00000	854.00000	962.00000
988.62661	1.55640	0.02777	5079.18703	905.14928	1021.06178	986.73881	0.02772	5013.00000	901.00000	1015.00000
994.82097	1.55921	0.02759	5288.13901	870.37131	992.27041	992.92918	0.02768	5216.00000	881.00000	1001.00000
1001.01532	1.56383	0.02730	5547.24444	876.96250	1004.45450	999.11955	0.02737	5470.00000	867.00000	993.00000
1007.20968	1.56177	0.02743	5821.73207	889.84005	1025.14494	1005.30992	0.02731	5729.00000	896.00000	1028.00000
1013.40403	1.55723	0.02772	6108.36987	875.33513	1020.36992	1011.50029	0.02771	6031.00000	870.00000	1013.00000
1019.59839	1.55919	0.02759	6349.51155	919.49996	1069.34456	1017.69066	0.02761	6269.00000	908.00000	1056.00000
1025.79274	1.55950	0.02757	6610.09178	908.88037	1066.07394	1023.88103	0.02760	6536.00000	921.00000	1076.00000
1031.98710	1.56074	0.02750	6863.27600	885.10537	1049.48714	1030.07140	0.02749	6776.00000	883.00000	1045.00000
1038.18145	1.55977	0.02756	7137.95533	879.30949	1051.77304	1036.26177	0.02755	7062.00000	892.00000	1062.00000
1044.37581	1.56017	0.02753	7415.45215	852.78191	1033.46152	1042.45214	0.02753	7313.00000	848.00000	1026.00000
1050.57016	1.55863	0.02763	7763.75520	889.74850	1079.67547	1048.64251	0.02758	7664.00000	884.00000	1071.00000
1056.76452	1.55807	0.02766	8043.98752	873.54577	1071.91213	1054.83288	0.02770	7958.00000	881.00000	1077.00000
1062.95887	1.56141	0.02745	8346.47029	875.55305	1080.64387	1061.02325	0.02751	8246.00000	868.00000	1071.00000
1069.15323	1.55845	0.02764	8651.05608	883.28349	1098.01304	1067.21362	0.02750	8564.00000	890.00000	1101.00000
1075.34758	1.55342	0.02796	8931.01237	859.29405	1084.98607	1073.40399	0.02796	8836.00000	860.00000	1083.00000
1081.54194	1.55718	0.02772	9243.78719	871.40916	1103.51135	1079.59436	0.02778	9149.00000	870.00000	1100.00000
1087.73629	1.55572	0.02782	9580.78777	901.76500	1143.18355	1085.78473	0.02774	9462.00000	883.00000	1121.00000
1093.93065	1.55381	0.02794	9940.76391	922.65990	1174.59197	1091.97510	0.02795	9841.00000	933.00000	1182.00000
1100.12500	1.55527	0.02784	10254.38783	869.25749	1130.59190	1098.16547	0.02784	10144.00000	878.00000	1136.00000
1106.31935	1.55477	0.02788	10641.04469	875.00467	1147.23439	1104.35584	0.02789	10519.00000	873.00000	1142.00000
1112.51371	1.55513	0.02785	11015.80766	872.41348	1154.93730	1110.54621	0.02784	10897.00000	874.00000	1153.00000
1118.70806	1.55223	0.02804	11401.60672	872.77123	1167.99939	1116.73658	0.02797	11276.00000	871.00000	1162.00000
1124.90242	1.55049	0.02815	11814.30888	885.70510	1193.36132	1122.92695	0.02815	11680.00000	881.00000	1185.00000
1131.09677	1.55173	0.02807	12236.17715	886.26842	1204.87735	1129.11732	0.02809	12103.00000	890.00000	1205.00000
1137.29113	1.54992	0.02819	12606.57558	854.95675	1186.23681	1135.30769	0.02811	12498.00000	867.00000	1194.00000
1143.48548	1.54838	0.02829	12995.31207	851.62722	1195.13717	1141.49806	0.02831	12851.00000	843.00000	1183.00000
1149.67984	1.54962	0.02821	13491.13514	894.93569	1250.27896	1147.68843	0.02819	13335.00000	884.00000	1235.00000
1155.87419	1.54909	0.02824	13953.07917	885.15852	1254.20183	1153.87880	0.02827	13805.00000	896.00000	1261.00000
1162.06855	1.54935	0.02823	14446.12872	862.12568	1245.57658	1160.06917	0.02817	14279.00000	862.00000	1240.00000
1168.26290	1.54707	0.02837	14959.02414	891.75197	1290.88773	1166.25954	0.02838	14800.00000	881.00000	1276.00000
1174.45726	1.54969	0.02820	15420.71473	898.79570	1308.36839	1172.44991	0.02825	15273.00000	903.00000	1309.00000
1180.65161	1.54851	0.02828	15876.41905	861.08105	1285.73952	1178.64028	0.02821	15728.00000	875.00000	1294.00000
1186.84597	1.54512	0.02850	16371.22020	852.06070	1294.38248	1184.83065	0.02846	16201.00000	846.00000	1283.00000
1193.04032	1.54511	0.02850	16894.18264	880.38932	1336.82057	1191.02102	0.02851	16730.00000	875.00000	1327.00000
1199.23468	1.54265	0.02866	17400.55626	883.09277	1356.58092	1197.21139	0.02857	17229.00000	882.00000	1349.00000
1205.42903	1.53955	0.02887	17922.85290	876.52702	1368.64523	1203.40176	0.02886	17758.00000	882.00000	1369.00000
1211.62339	1.54218	0.02870	18412.23826	867.41129	1370.85886	1209.59213	0.02876	18250.00000	866.00000	1366.00000
1217.81774	1.54096	0.02878	18946.64823	877.09601	1397.10557	1215.78250	0.02868	18763.00000	876.00000	1389.00000
1224.01210	1.53781	0.02899	19522.38589	879.59709	1419.94903	1221.97287	0.02899	19334.00000	877.00000	1412.00000
1230.20645	1.53919	0.02889	20046.82356	877.27220	1431.18052	1228.16324	0.02889	19884.00000	882.00000	1431.00000
1236.40081	1.53801	0.02897	20578.92550	894.33634	1464.63953	1234.35361	0.02896	20387.00000	878.00000	1443.00000
1242.59516	1.53724	0.02902	21116.97255	904.50586	1491.16972	1240.54398	0.02899	20962.00000	919.00000	1500.00000
1248.78952	1.53566	0.02913	21555.61107	852.78714	1455.85173	1246.73435	0.02911	21399.00000	858.00000	1456.00000
1254.98387	1.53537	0.02915	22112.97196	897.03001	1515.46391	1252.92472	0.02914	21917.00000	878.00000	1491.00000
1261.17823	1.53456	0.02920	22669.33634	902.45329	1538.14095	1259.11509	0.02919	22498.00000	915.00000	1545.00000
1267.37258	1.53515	0.02916	23144.86310	840.51764	1490.99240	1265.30546	0.02919	22985.00000	857.00000	1503.00000
1273.56694	1.53397	0.02924	23720.39347	860.92978	1529.44083	1271.49583	0.02916	23506.00000	841.00000	1502.00000
1279.76129	1.53012	0.02950	24372.77955	913.59084	1605.71843	1277.68620	0.02945	24166.00000	906.00000	1591.00000
1285.95565	1.53011	0.02950	24945.52650	893.87771	1603.52128	1283.87657	0.02952	24754.00000	903.00000	1607.00000
1292.15000	1.53031	0.02949	25532.41484	877.59600	1604.67854	1290.06694	0.02949	25332.00000	880.00000	1601.00000
1298.34435	1.52824	0.02963	26175.67024	884.75253	1634.19313	1296.25731	0.02956	25949.00000	881.00000	1622.00000
1304.53871	1.52714	0.02971	26805.92834	868.00311	1638.52403	1302.44769	0.02973	26610.00000	881.00000	1646.00000
1310.73306	1.52860	0.02961	27432.03993	867.23944	1653.76937	1308.63806	0.02961	27196.00000	853.00000	1633.00000
1316.92742	1.52710	0.02971	28161.82657	892.73544	1702.87819	1314.82843	0.02968	27925.00000	899.00000	1701.00000
1323.12177	1.52552	0.02982	28842.74169	862.95220	1697.25739	1321.01880	0.02977	28606.00000	864.00000	1690.00000
1329.31613	1.52389	0.02993	29519.54369	871.94640	1729.38292	1327.20917	0.02990	29300.00000	874.00000	1724.00000
1335.51048	1.52365	0.02995	30183.25265	863.66515	1741.67556	1333.39954	0.02995	29944.00000	862.00000	1733.00000
1341.70484	1.52241	0.03003	30926.51890	893.32929	1795.31237	1339.58991	0.02997	30673.00000	881.00000	1774.00000
1347.89919	1.52032	0.03018	31587.63481	894.88004	1821.09579	1345.78028	0.03015	31380.00000	904.00000	1823.00000
1354.09355	1.52141	0.03010	32227.78710	859.30420	1803.52276	1351.97065	0.03014	31988.00000	867.00000	1805.00000
1360.28790	1.52079	0.03014	32929.95072	867.11433	1833.66611	1358.16102	0.03009	32704.00000	861.00000	1819.00000
1366.48226	1.51877	0.03028	33569.06337	866.55753	1856.92182	1364.35139	0.03028	33341.00000	873.00000	1856.00000
1372.67661	1.51867	0.03029	34261.83351	843.87902	1856.19514	1370.54176	0.03026	34024.00000	848.00000	1852.00000
1378.87097	1.51736	0.03038	34838.67465	870.52277	1902.59162	1376.73213	0.03037	34668.00000	855.00000	1882.00000
1385.06532	1.51622	0.03046	35121.03064	877.10458	1920.29826	1382.92250	0.03041	35059.00000	888.00000	1927.00000
1391.25968	1.51399	0.03062	35289.43299	872.38486	1926.25377	1389.11287	0.03059	35214.00000	858.00000	1909.00000
1397.45403	1.51304	0.03069	35460.60298	899.47130	1960.05453	1395.30324	0.03065	35427.00000	906.00000	1964.00000
1403.64839	1.51160	0.03079	35666.10671	869.36576	1940.73750	1401.49361	0.03077	35545.00000	870.00000	1937.00000
1409.84274	1.51230	0.03074	36323.03255	883.09719	1972.49078	1407.68398	0.03077	36050.00000	883.00000	1965.00000
1416.03710	1.51151	0.03080	37284.68636	884.03189	2005.05157	1413.87435	0.03074	36926.00000	879.00000	1987.00000
1422.23145	1.50986	0.03091	38329.42739	892.53935	2049.77784	1420.06472	0.03091	37970.00000	895.00000	2041.00000
1428.42581	1.50984	0.03091	39434.74114	878.71439	2070.68423	1426.25509	0.03089	39022.00000	881.00000	2059.00000
1434.62016	1.50841	0.03102	40575.07439	880.06733	2111.24591	1432.44546	0.03100	40203.00000	880.00000	2099.00000
1440.81452	1.50835	0.03102	41493.68414	879.47622	2139.35288	1438.63583	0.03101	41184.00000	879.00000	2129.00000
1447.00887	1.50767	0.03107	42510.04768	905.41306	2198.02736	1444.82620	0.03105	42113.00000	891.00000	2171.00000
1453.20323	1.50782	0.03106	43543.72896	892.86717	2217.53764	1451.01657	0.03108	43229.00000	914.00000	2229.00000
1459.39758	1.50802	0.03104	44405.02794	864.61268	2216.29208	1457.20694	0.03103	44070.00000	855.00000	2196.00000
1465.59194	1.50711	0.03111	45481.34063	906.97918	2293.64264	1463.39731	0.03109	45094.00000	903.00000	2277.00000
1471.78629	1.50644	0.03116	46480.51435	890.87025	2311.34593	1469.58768	0.03113	46150.00000	894.00000	2303.00000
1477.98065	1.50551	0.03122	47320.91755	868.50781	2318.92630	1475.77805	0.03121	47029.00000	883.00000	2323.00000
1484.17500	1.50398	0.03133	48225.65661	857.63729	2341.89787	1481.96842	0.03128	47881.00000	849.00000	2320.00000
1490.36935	1.50225	0.03146	49092.30051	893.89890	2410.17170	1488.15879	0.03144	48824.00000	887.00000	2394.00000
1496.56371	1.50211	0.03147	49778.04514	887.35808	2425.91412	1494.34916	0.03146	49521.00000	891.00000	2421.00000
1502.75806	1.50139	0.03152	50469.48096	863.36996	2427.01877	1500.53953	0.03150	50241.00000	875.00000	2430.00000
1508.95242	1.50030	0.03160	51158.04064	897.54966	2485.83456	1506.72990	0.03157	50884.00000	867.00000	2446.00000
1515.14677	1.49956	0.03166	51878.91086	902.58342	2516.23756	1512.92027	0.03165	51650.00000	933.00000	2538.00000
1521.34113	1.49927	0.03168	52577.57434	850.45197	2488.95835	1519.11064	0.03166	52288.00000	838.00000	2467.00000
1527.53548	1.49791	0.03178	53324.26188	911.75147	2577.18295	1525.30101	0.03173	53098.00000	907.00000	2563.00000
1533.72984	1.49620	0.03190	53919.19306	885.74627	2577.56278	1531.49138	0.03186	53680.00000	890.00000	2572.00000
1539.92419	1.49575	0.03193	54593.00479	874.24673	2589.67152	1537.68175	0.03194	54367.00000	884.00000	2592.00000
1546.11855	1.49543	0.03196	55208.54831	866.87961	2603.51367	1543.87212	0.03193	54973.00000	860.00000	2588.00000
1552.31290	1.49381	0.03208	55811.51925	888.84465	2650.56526	1550.06249	0.03203	55614.00000	887.00000	2640.00000
1558.50726	1.49261	0.03217	56431.29012	888.46797	2675.04335	1556.25286	0.03214	56172.00000	885.00000	2662.00000
1564.70161	1.49244	0.03218	57011.94896	890.80855	2696.68888	1562.44323	0.03218	56858.00000	895.00000	2696.00000
1570.89597	1.49182	0.03222	57413.89650	869.93991	2692.01378	1568.63360	0.03219	57231.00000	876.00000	2690.00000
1577.09032	1.49065	0.03231	57979.03512	879.44141	2724.36484	1574.82397	0.03229	57786.00000	871.00000	2709.00000
1583.28468	1.49015	0.03235	58450.11400	894.72676	2756.56479	1581.01434	0.03233	58279.00000	894.00000	2749.00000
1589.47903	1.48938	0.03241	58825.25008	895.18773	2772.42581	1587.20471	0.03239	58712.00000	892.00000	2765.00000
1595.67339	1.48890	0.03244	59146.72764	885.70009	2775.78217	1593.39508	0.03242	59009.00000	896.00000	2780.00000
1601.86774	1.48740	0.03255	59574.82387	893.37146	2803.68677	1599.58545	0.03251	59419.00000	877.00000	2780.00000
1608.06210	1.48686	0.03259	59920.72690	909.46488	2832.86652	1605.77582	0.03260	59809.00000	920.00000	2840.00000
1614.25645	1.48621	0.03264	60220.95853	887.30010	2824.13557	1611.96619	0.03259	60102.00000	882.00000	2812.00000
1620.45081	1.48525	0.03272	60438.83040	897.12192	2845.04979	1618.15656	0.03273	60391.00000	905.00000	2852.00000
1626.64516	1.48536	0.03271	60579.30309	884.35356	2836.80243	1624.34693	0.03267	60502.00000	878.00000	2826.00000
1632.83952	1.48346	0.03285	60848.95373	899.57786	2868.92501	1630.53730	0.03281	60754.00000	903.00000	2867.00000
1639.03387	1.48314	0.03287	60928.35809	870.27700	2844.63851	1636.72767	0.03287	60938.00000	879.00000	2853.00000
1645.22823	1.48319	0.03287	60778.06969	873.98452	2843.12189	1642.91804	0.03288	60849.00000	868.00000	2840.00000
1651.42258	1.48086	0.03305	59777.88214	914.49031	2859.69144	1649.10841	0.03293	60357.00000	896.00000	2854.00000
1657.61694	1.47693	0.03335	57642.70006	920.63108	2812.23464	1655.29878	0.03327	58452.00000	931.00000	2845.00000
1663.81129	1.47754	0.03330	56689.89176	898.36344	2756.30444	1661.48915	0.03335	56762.00000	897.00000	2760.00000
1670.00565	1.47647	0.03338	55553.85124	917.06266	2740.88571	1667.67952	0.03329	56404.00000	914.00000	2761.00000
1676.20000	1.47226	0.03371	52318.47966	879.24303	2613.35078	1673.86989	0.03361	53497.00000	901.00000	2669.00000
0.00000	0.00000	0.00000	0.00000	0.00000	0.00000	1680.06026	0.03383	50136.00000	860.00000	2527.00000
0.00000	0.00000	0.00000	0.00000	0.00000	0.00000	1686.25063	0.03408	46019.00000	923.00000	2460.00000
0.00000	0.00000	0.00000	0.00000	0.00000	0.00000	1692.44100	0.03408	46019.00000	923.00000	2460.00000
