'File 橘子_4_2016一月28_1125.xls
'Part ID 橘子_4
'Scan Created 2016/1/28 11:25:07
'Instrument S1-00205
'Version 1.5.7
'Integration Time 10100 s
'Number of Scans 50
'Units Absorbance
'Thermistor 48.72
Wavelength	Absorbance	Normalized	100%	dark	Raw 1	Native Wvl	Native Norm	Native 100%	Native dark	Native 1
908.10000	0.44356	0.36011	3595.82598	881.87120	1857.95409	906.26400	0.34950	3684.00000	880.00000	1860.00000
914.29435	0.40331	0.39508	3338.07467	866.26472	1843.21682	912.45437	0.38489	3404.00000	876.00000	1849.00000
920.48871	0.36480	0.43171	3265.72768	878.51909	1909.10786	918.64474	0.42011	3257.00000	860.00000	1867.00000
926.68306	0.32989	0.46785	3334.01990	918.74175	2048.59903	924.83511	0.45833	3324.00000	924.00000	2024.00000
932.87742	0.30298	0.49776	3389.36197	864.93184	2121.64024	931.02548	0.48831	3355.00000	875.00000	2086.00000
939.07177	0.27811	0.52710	3619.59224	884.95115	2326.38012	937.21585	0.51952	3537.00000	873.00000	2257.00000
945.26613	0.26650	0.54138	3856.44440	889.93616	2495.87827	943.40622	0.53894	3802.00000	900.00000	2464.00000
951.46048	0.26772	0.53986	4005.12223	859.91735	2557.97060	949.59659	0.54167	3955.00000	859.00000	2536.00000
957.65484	0.27729	0.52810	4215.51392	893.73656	2647.78290	955.78696	0.53233	4148.00000	885.00000	2622.00000
963.84919	0.28537	0.51836	4374.23623	878.43417	2690.62609	961.97733	0.51984	4344.00000	891.00000	2686.00000
970.04355	0.28504	0.51876	4523.41127	896.06510	2777.77731	968.16770	0.51843	4453.00000	871.00000	2728.00000
976.23790	0.28603	0.51757	4726.50938	925.04592	2892.47884	974.35807	0.51841	4693.00000	945.00000	2888.00000
982.43226	0.28550	0.51820	4835.26800	856.06452	2918.24091	980.54844	0.51682	4778.00000	854.00000	2882.00000
988.62661	0.28018	0.52459	5079.18703	905.14928	3094.67299	986.73881	0.52310	5013.00000	901.00000	3052.00000
994.82097	0.27767	0.52764	5288.13901	870.37131	3201.44172	992.92918	0.52664	5216.00000	881.00000	3164.00000
1001.01532	0.27408	0.53201	5547.24444	876.96250	3361.49074	999.11955	0.53052	5470.00000	867.00000	3309.00000
1007.20968	0.26852	0.53887	5821.73207	889.84005	3547.64284	1005.30992	0.53631	5729.00000	896.00000	3488.00000
1013.40403	0.25817	0.55186	6108.36987	875.33513	3763.06004	1011.50029	0.54699	6031.00000	870.00000	3693.00000
1019.59839	0.24505	0.56879	6349.51155	919.49996	4008.17609	1017.69066	0.56389	6269.00000	908.00000	3931.00000
1025.79274	0.23569	0.58118	6610.09178	908.88037	4222.20969	1023.88103	0.57792	6536.00000	921.00000	4166.00000
1031.98710	0.22787	0.59174	6863.27600	885.10537	4422.72839	1030.07140	0.58816	6776.00000	883.00000	4349.00000
1038.18145	0.21951	0.60324	7137.95533	879.30949	4654.69811	1036.26177	0.60000	7062.00000	892.00000	4594.00000
1044.37581	0.21324	0.61201	7415.45215	852.78191	4869.28158	1042.45214	0.60944	7313.00000	848.00000	4788.00000
1050.57016	0.20833	0.61897	7763.75520	889.74850	5144.53642	1048.64251	0.61711	7664.00000	884.00000	5068.00000
1056.76452	0.20511	0.62358	8043.98752	873.54577	5344.89767	1054.83288	0.62230	7958.00000	881.00000	5285.00000
1062.95887	0.20295	0.62669	8346.47029	875.55305	5557.53138	1061.02325	0.62591	8246.00000	868.00000	5486.00000
1069.15323	0.20256	0.62725	8651.05608	883.28349	5755.54621	1067.21362	0.62744	8564.00000	890.00000	5705.00000
1075.34758	0.20353	0.62585	8931.01237	859.29405	5911.01630	1073.40399	0.62625	8836.00000	860.00000	5855.00000
1081.54194	0.20515	0.62352	9243.78719	871.40916	6091.72586	1079.59436	0.62459	9149.00000	870.00000	6041.00000
1087.73629	0.20850	0.61873	9580.78777	901.76500	6271.81187	1085.78473	0.62035	9462.00000	883.00000	6205.00000
1093.93065	0.21308	0.61224	9940.76391	922.65990	6443.88540	1091.97510	0.61462	9841.00000	933.00000	6408.00000
1100.12500	0.21941	0.60338	10254.38783	869.25749	6532.07902	1098.16547	0.60630	10144.00000	878.00000	6496.00000
1106.31935	0.22611	0.59414	10641.04469	875.00467	6677.42377	1104.35584	0.59704	10519.00000	873.00000	6632.00000
1112.51371	0.23284	0.58500	11015.80766	872.41348	6806.31373	1110.54621	0.58795	10897.00000	874.00000	6767.00000
1118.70806	0.24080	0.57438	11401.60672	872.77123	6920.31646	1116.73658	0.57809	11276.00000	871.00000	6886.00000
1124.90242	0.25260	0.55899	11814.30888	885.70510	6994.83770	1122.92695	0.56468	11680.00000	881.00000	6979.00000
1131.09677	0.27306	0.53326	12236.17715	886.26842	6938.40401	1129.11732	0.54303	12103.00000	890.00000	6979.00000
1137.29113	0.30470	0.49579	12606.57558	854.95675	6681.58736	1135.30769	0.50855	12498.00000	867.00000	6782.00000
1143.48548	0.34047	0.45659	12995.31207	851.62722	6395.96509	1141.49806	0.46860	12851.00000	843.00000	6470.00000
1149.67984	0.36962	0.42695	13491.13514	894.93569	6273.22514	1147.68843	0.43490	13335.00000	884.00000	6299.00000
1155.87419	0.38803	0.40923	13953.07917	885.15852	6232.80505	1153.87880	0.41413	13805.00000	896.00000	6242.00000
1162.06855	0.39948	0.39858	14446.12872	862.12568	6276.53691	1160.06917	0.40121	14279.00000	862.00000	6245.00000
1168.26290	0.40468	0.39384	14959.02414	891.75197	6432.09869	1166.25954	0.39500	14800.00000	881.00000	6379.00000
1174.45726	0.40850	0.39039	15420.71473	898.79570	6568.01028	1172.44991	0.39165	15273.00000	903.00000	6531.00000
1180.65161	0.41313	0.38625	15876.41905	861.08105	6660.74483	1178.64028	0.38753	15728.00000	875.00000	6631.00000
1186.84597	0.41653	0.38324	16371.22020	852.06070	6799.60109	1184.83065	0.38404	16201.00000	846.00000	6743.00000
1193.04032	0.41905	0.38102	16894.18264	880.38932	6981.92828	1191.02102	0.38177	16730.00000	875.00000	6928.00000
1199.23468	0.42041	0.37983	17400.55626	883.09277	7156.99337	1197.21139	0.37989	17229.00000	882.00000	7092.00000
1205.42903	0.41867	0.38136	17922.85290	876.52702	7377.26418	1203.40176	0.38066	17758.00000	882.00000	7306.00000
1211.62339	0.41563	0.38404	18412.23826	867.41129	7605.27689	1209.59213	0.38311	18250.00000	866.00000	7526.00000
1217.81774	0.41236	0.38694	18946.64823	877.09601	7868.86145	1215.78250	0.38598	18763.00000	876.00000	7780.00000
1224.01210	0.40878	0.39014	19522.38589	879.59709	8152.89711	1221.97287	0.38901	19334.00000	877.00000	8057.00000
1230.20645	0.40498	0.39357	20046.82356	877.27220	8421.83493	1228.16324	0.39249	19884.00000	882.00000	8340.00000
1236.40081	0.40129	0.39693	20578.92550	894.33634	8707.79811	1234.35361	0.39577	20387.00000	878.00000	8599.00000
1242.59516	0.39756	0.40035	21116.97255	904.50586	8996.48068	1240.54398	0.39929	20962.00000	919.00000	8922.00000
1248.78952	0.39476	0.40294	21555.61107	852.78714	9194.68091	1246.73435	0.40217	21399.00000	858.00000	9119.00000
1254.98387	0.39262	0.40493	22112.97196	897.03001	9487.99823	1252.92472	0.40430	21917.00000	878.00000	9384.00000
1261.17823	0.39129	0.40617	22669.33634	902.45329	9743.48328	1259.11509	0.40592	22498.00000	915.00000	9676.00000
1267.37258	0.39171	0.40578	23144.86310	840.51764	9891.08982	1265.30546	0.40609	22985.00000	857.00000	9843.00000
1273.56694	0.39336	0.40424	23720.39347	860.92978	10101.65772	1271.49583	0.40481	23506.00000	841.00000	10016.00000
1279.76129	0.39645	0.40138	24372.77955	913.59084	10329.56844	1277.68620	0.40262	24166.00000	906.00000	10271.00000
1285.95565	0.40206	0.39622	24945.52650	893.87771	10423.65797	1283.87657	0.39814	24754.00000	903.00000	10399.00000
1292.15000	0.40956	0.38944	25532.41484	877.59600	10479.19849	1290.06694	0.39191	25332.00000	880.00000	10463.00000
1298.34435	0.41915	0.38093	26175.67024	884.75253	10518.87665	1296.25731	0.38400	25949.00000	881.00000	10507.00000
1304.53871	0.43148	0.37027	26805.92834	868.00311	10472.12213	1302.44769	0.37417	26610.00000	881.00000	10508.00000
1310.73306	0.44651	0.35768	27432.03993	867.23944	10368.92076	1308.63806	0.36203	27196.00000	853.00000	10390.00000
1316.92742	0.46357	0.34390	28161.82657	892.73544	10270.43395	1314.82843	0.34878	27925.00000	899.00000	10325.00000
1323.12177	0.48306	0.32880	28842.74169	862.95220	10062.83755	1321.01880	0.33397	28606.00000	864.00000	10129.00000
1329.31613	0.50340	0.31376	29519.54369	871.94640	9860.61377	1327.20917	0.31883	29300.00000	874.00000	9937.00000
1335.51048	0.52356	0.29953	30183.25265	863.66515	9645.77972	1333.39954	0.30424	29944.00000	862.00000	9710.00000
1341.70484	0.54216	0.28697	30926.51890	893.32929	9512.03475	1339.58991	0.29102	30673.00000	881.00000	9551.00000
1347.89919	0.55861	0.27631	31587.63481	894.88004	9375.54744	1345.78028	0.27979	31380.00000	904.00000	9431.00000
1354.09355	0.57375	0.26684	32227.78710	859.30420	9229.57114	1351.97065	0.26998	31988.00000	867.00000	9269.00000
1360.28790	0.58900	0.25763	32929.95072	867.11433	9127.66116	1358.16102	0.26087	32704.00000	861.00000	9168.00000
1366.48226	0.60767	0.24679	33569.06337	866.55753	8937.22950	1364.35139	0.25083	33341.00000	873.00000	9017.00000
1372.67661	0.63340	0.23259	34261.83351	843.87902	8616.56665	1370.54176	0.23794	34024.00000	848.00000	8742.00000
1378.87097	0.66961	0.21399	34838.67465	870.52277	8139.41017	1376.73213	0.22095	34668.00000	855.00000	8326.00000
1385.06532	0.71841	0.19125	35121.03064	877.10458	7426.22183	1382.92250	0.19947	35059.00000	888.00000	7704.00000
1391.25968	0.77647	0.16731	35289.43299	872.38486	6630.59346	1389.11287	0.17546	35214.00000	858.00000	6886.00000
1397.45403	0.83673	0.14564	35460.60298	899.47130	5933.14244	1395.30324	0.15281	35427.00000	906.00000	6181.00000
1403.64839	0.89232	0.12814	35666.10671	869.36576	5328.05796	1401.49361	0.13361	35545.00000	870.00000	5503.00000
1409.84274	0.93692	0.11563	36323.03255	883.09719	4981.09649	1407.68398	0.11952	36050.00000	883.00000	5086.00000
1416.03710	0.97067	0.10699	37284.68636	884.03189	4778.44149	1413.87435	0.10961	36926.00000	879.00000	4830.00000
1422.23145	0.99527	0.10110	38329.42739	892.53935	4677.27112	1420.06472	0.10295	37970.00000	895.00000	4712.00000
1428.42581	1.01353	0.09693	39434.74114	878.71439	4616.06905	1426.25509	0.09819	39022.00000	881.00000	4626.00000
1434.62016	1.02592	0.09421	40575.07439	880.06733	4619.60220	1432.44546	0.09506	40203.00000	880.00000	4618.00000
1440.81452	1.03466	0.09233	41493.68414	879.47622	4629.32612	1438.63583	0.09289	41184.00000	879.00000	4623.00000
1447.00887	1.03917	0.09138	42510.04768	905.41306	4707.14000	1444.82620	0.09160	42113.00000	891.00000	4667.00000
1453.20323	1.04180	0.09082	43543.72896	892.86717	4766.49210	1451.01657	0.09106	43229.00000	914.00000	4767.00000
1459.39758	1.04266	0.09064	44405.02794	864.61268	4811.39386	1457.20694	0.09055	44070.00000	855.00000	4768.00000
1465.59194	1.03866	0.09148	45481.34063	906.97918	4984.71829	1463.39731	0.09115	45094.00000	903.00000	4931.00000
1471.78629	1.03226	0.09284	46480.51435	890.87025	5123.48946	1469.58768	0.09225	46150.00000	894.00000	5069.00000
1477.98065	1.02241	0.09497	47320.91755	868.50781	5280.05946	1475.77805	0.09416	47029.00000	883.00000	5228.00000
1484.17500	1.01034	0.09765	48225.65661	857.63729	5483.02183	1481.96842	0.09662	47881.00000	849.00000	5393.00000
1490.36935	0.99633	0.10085	49092.30051	893.89890	5754.53218	1488.15879	0.09967	48824.00000	887.00000	5665.00000
1496.56371	0.98188	0.10426	49778.04514	887.35808	5984.77232	1494.34916	0.10302	49521.00000	891.00000	5901.00000
1502.75806	0.96725	0.10783	50469.48096	863.36996	6212.47622	1500.53953	0.10653	50241.00000	875.00000	6134.00000
1508.95242	0.95160	0.11179	51158.04064	897.54966	6516.22882	1506.72990	0.11030	50884.00000	867.00000	6384.00000
1515.14677	0.93623	0.11582	51878.91086	902.58342	6806.38185	1512.92027	0.11444	51650.00000	933.00000	6737.00000
1521.34113	0.92159	0.11979	52577.57434	850.45197	7046.87176	1519.11064	0.11827	52288.00000	838.00000	6923.00000
1527.53548	0.90638	0.12406	53324.26188	911.75147	7413.78356	1525.30101	0.12257	53098.00000	907.00000	7304.00000
1533.72984	0.89230	0.12814	53919.19306	885.74627	7681.75376	1531.49138	0.12663	53680.00000	890.00000	7575.00000
1539.92419	0.87862	0.13224	54593.00479	874.24673	7978.12286	1537.68175	0.13081	54367.00000	884.00000	7880.00000
1546.11855	0.86593	0.13617	55208.54831	866.87961	8266.43237	1543.87212	0.13472	54973.00000	860.00000	8150.00000
1552.31290	0.85312	0.14024	55811.51925	888.84465	8591.16430	1550.06249	0.13876	55614.00000	887.00000	8481.00000
1558.50726	0.84078	0.14428	56431.29012	888.46797	8902.53240	1556.25286	0.14282	56172.00000	885.00000	8781.00000
1564.70161	0.82959	0.14805	57011.94896	890.80855	9199.43335	1562.44323	0.14674	56858.00000	895.00000	9107.00000
1570.89597	0.81928	0.15161	57413.89650	869.93991	9442.58890	1568.63360	0.15028	57231.00000	876.00000	9345.00000
1577.09032	0.80880	0.15531	57979.03512	879.44141	9747.59302	1574.82397	0.15397	57786.00000	871.00000	9634.00000
1583.28468	0.79922	0.15877	58450.11400	894.72676	10033.06431	1581.01434	0.15755	58279.00000	894.00000	9935.00000
1589.47903	0.79042	0.16202	58825.25008	895.18773	10281.22567	1587.20471	0.16083	58712.00000	892.00000	10191.00000
1595.67339	0.78189	0.16524	59146.72764	885.70009	10512.71354	1593.39508	0.16408	59009.00000	896.00000	10431.00000
1601.86774	0.77383	0.16833	59574.82387	893.37146	10771.36236	1599.58545	0.16720	59419.00000	877.00000	10665.00000
1608.06210	0.76647	0.17121	59920.72690	909.46488	11012.82604	1605.77582	0.17020	59809.00000	920.00000	10943.00000
1614.25645	0.75962	0.17393	60220.95853	887.30010	11207.38162	1611.96619	0.17290	60102.00000	882.00000	11121.00000
1620.45081	0.75322	0.17652	60438.83040	897.12192	11407.11012	1618.15656	0.17564	60391.00000	905.00000	11353.00000
1626.64516	0.74767	0.17878	60579.30309	884.35356	11556.83711	1624.34693	0.17791	60502.00000	878.00000	11486.00000
1632.83952	0.74234	0.18099	60848.95373	899.57786	11749.88571	1630.53730	0.18023	60754.00000	903.00000	11690.00000
1639.03387	0.73774	0.18292	60928.35809	870.27700	11855.96946	1636.72767	0.18219	60938.00000	879.00000	11821.00000
1645.22823	0.73282	0.18500	60778.06969	873.98452	11956.54771	1642.91804	0.18421	60849.00000	868.00000	11917.00000
1651.42258	0.72726	0.18739	59777.88214	914.49031	11944.38687	1649.10841	0.18644	60357.00000	896.00000	11982.00000
1657.61694	0.72248	0.18946	57642.70006	920.63108	11667.16183	1655.29878	0.18884	58452.00000	931.00000	11793.00000
1663.81129	0.71973	0.19067	56689.89176	898.36344	11536.42064	1661.48915	0.19023	56762.00000	897.00000	11524.00000
1670.00565	0.71589	0.19236	55553.85124	917.06266	11426.10725	1667.67952	0.19160	56404.00000	914.00000	11546.00000
1676.20000	0.71174	0.19421	52318.47966	879.24303	10870.12227	1673.86989	0.19363	53497.00000	901.00000	11085.00000
0.00000	0.00000	0.00000	0.00000	0.00000	0.00000	1680.06026	0.19519	50136.00000	860.00000	10478.00000
0.00000	0.00000	0.00000	0.00000	0.00000	0.00000	1686.25063	0.19720	46019.00000	923.00000	9816.00000
0.00000	0.00000	0.00000	0.00000	0.00000	0.00000	1692.44100	0.19720	46019.00000	923.00000	9816.00000
