'File 橘子_1_2016一月28_1124.xls
'Part ID 橘子_1
'Scan Created 2016/1/28 11:24:49
'Instrument S1-00205
'Version 1.5.7
'Integration Time 10100 s
'Number of Scans 50
'Units Absorbance
'Thermistor 48.72
Wavelength	Absorbance	Normalized	100%	dark	Raw 1	Native Wvl	Native Norm	Native 100%	Native dark	Native 1
908.10000	0.47978	0.33130	3595.82598	881.87120	1779.90822	906.26400	0.32168	3684.00000	880.00000	1782.00000
914.29435	0.43833	0.36448	3338.07467	866.26472	1767.48851	912.45437	0.35443	3404.00000	876.00000	1772.00000
920.48871	0.39773	0.40019	3265.72768	878.51909	1833.87110	918.64474	0.38924	3257.00000	860.00000	1793.00000
926.68306	0.36224	0.43427	3334.01990	918.74175	1967.51026	924.83511	0.42500	3324.00000	924.00000	1944.00000
932.87742	0.33335	0.46414	3389.36197	864.93184	2036.76023	931.02548	0.45484	3355.00000	875.00000	2003.00000
939.07177	0.30723	0.49292	3619.59224	884.95115	2232.93139	937.21585	0.48536	3537.00000	873.00000	2166.00000
945.26613	0.29426	0.50786	3856.44440	889.93616	2396.41444	943.40622	0.50517	3802.00000	900.00000	2366.00000
951.46048	0.29423	0.50789	4005.12223	859.91735	2457.40508	949.59659	0.50904	3955.00000	859.00000	2435.00000
957.65484	0.30194	0.49895	4215.51392	893.73656	2550.98201	955.78696	0.50230	4148.00000	885.00000	2524.00000
963.84919	0.30873	0.49121	4374.23623	878.43417	2595.71475	961.97733	0.49233	4344.00000	891.00000	2591.00000
970.04355	0.30796	0.49208	4523.41127	896.06510	2681.01955	968.16770	0.49162	4453.00000	871.00000	2632.00000
976.23790	0.30821	0.49180	4726.50938	925.04592	2794.50253	974.35807	0.49226	4693.00000	945.00000	2790.00000
982.43226	0.30682	0.49338	4835.26800	856.06452	2819.46658	980.54844	0.49185	4778.00000	854.00000	2784.00000
988.62661	0.30123	0.49977	5079.18703	905.14928	2991.06444	986.73881	0.49830	5013.00000	901.00000	2950.00000
994.82097	0.29832	0.50313	5288.13901	870.37131	3093.19382	992.92918	0.50196	5216.00000	881.00000	3057.00000
1001.01532	0.29418	0.50795	5547.24444	876.96250	3249.06296	999.11955	0.50641	5470.00000	867.00000	3198.00000
1007.20968	0.28817	0.51502	5821.73207	889.84005	3430.07989	1005.30992	0.51231	5729.00000	896.00000	3372.00000
1013.40403	0.27700	0.52844	6108.36987	875.33513	3640.50384	1011.50029	0.52354	6031.00000	870.00000	3572.00000
1019.59839	0.26367	0.54491	6349.51155	919.49996	3878.49985	1017.69066	0.54020	6269.00000	908.00000	3804.00000
1025.79274	0.25390	0.55731	6610.09178	908.88037	4086.16436	1023.88103	0.55387	6536.00000	921.00000	4031.00000
1031.98710	0.24543	0.56830	6863.27600	885.10537	4282.53130	1030.07140	0.56474	6776.00000	883.00000	4211.00000
1038.18145	0.23683	0.57966	7137.95533	879.30949	4507.14870	1036.26177	0.57634	7062.00000	892.00000	4448.00000
1044.37581	0.22997	0.58889	7415.45215	852.78191	4717.48877	1042.45214	0.58623	7313.00000	848.00000	4638.00000
1050.57016	0.22466	0.59613	7763.75520	889.74850	4987.53623	1048.64251	0.59410	7664.00000	884.00000	4912.00000
1056.76452	0.22079	0.60146	8043.98752	873.54577	5186.26329	1054.83288	0.59997	7958.00000	881.00000	5127.00000
1062.95887	0.21806	0.60525	8346.47029	875.55305	5397.38682	1061.02325	0.60423	8246.00000	868.00000	5326.00000
1069.15323	0.21707	0.60663	8651.05608	883.28349	5595.40933	1067.21362	0.60659	8564.00000	890.00000	5545.00000
1075.34758	0.21744	0.60612	8931.01237	859.29405	5751.80268	1073.40399	0.60619	8836.00000	860.00000	5695.00000
1081.54194	0.21836	0.60484	9243.78719	871.40916	5935.30763	1079.59436	0.60563	9149.00000	870.00000	5884.00000
1087.73629	0.22110	0.60104	9580.78777	901.76500	6118.24656	1085.78473	0.60228	9462.00000	883.00000	6050.00000
1093.93065	0.22496	0.59572	9940.76391	922.65990	6294.89236	1091.97510	0.59778	9841.00000	933.00000	6258.00000
1100.12500	0.23088	0.58765	10254.38783	869.25749	6384.41259	1098.16547	0.59033	10144.00000	878.00000	6348.00000
1106.31935	0.23724	0.57911	10641.04469	875.00467	6530.66146	1104.35584	0.58180	10519.00000	873.00000	6485.00000
1112.51371	0.24362	0.57067	11015.80766	872.41348	6660.96520	1110.54621	0.57338	10897.00000	874.00000	6621.00000
1118.70806	0.25125	0.56073	11401.60672	872.77123	6776.57207	1116.73658	0.56425	11276.00000	871.00000	6742.00000
1124.90242	0.26281	0.54600	11814.30888	885.70510	6852.88853	1122.92695	0.55144	11680.00000	881.00000	6836.00000
1131.09677	0.28291	0.52131	12236.17715	886.26842	6802.78557	1129.11732	0.53072	12103.00000	890.00000	6841.00000
1137.29113	0.31484	0.48436	12606.57558	854.95675	6547.17096	1135.30769	0.49712	12498.00000	867.00000	6649.00000
1143.48548	0.35192	0.44471	12995.31207	851.62722	6251.74562	1141.49806	0.45686	12851.00000	843.00000	6329.00000
1149.67984	0.38210	0.41486	13491.13514	894.93569	6120.90268	1147.68843	0.42286	13335.00000	884.00000	6149.00000
1155.87419	0.40137	0.39685	13953.07917	885.15852	6070.98309	1153.87880	0.40189	13805.00000	896.00000	6084.00000
1162.06855	0.41394	0.38553	14446.12872	862.12568	6099.19783	1160.06917	0.38839	14279.00000	862.00000	6073.00000
1168.26290	0.41964	0.38050	14959.02414	891.75197	6244.45603	1166.25954	0.38164	14800.00000	881.00000	6193.00000
1174.45726	0.42373	0.37694	15420.71473	898.79570	6372.58915	1172.44991	0.37836	15273.00000	903.00000	6340.00000
1180.65161	0.42941	0.37204	15876.41905	861.08105	6447.35448	1178.64028	0.37353	15728.00000	875.00000	6423.00000
1186.84597	0.43348	0.36857	16371.22020	852.06070	6571.95808	1184.83065	0.36952	16201.00000	846.00000	6520.00000
1193.04032	0.43672	0.36583	16894.18264	880.38932	6738.62476	1191.02102	0.36676	16730.00000	875.00000	6690.00000
1199.23468	0.43834	0.36447	17400.55626	883.09277	6903.21434	1197.21139	0.36447	17229.00000	882.00000	6840.00000
1205.42903	0.43579	0.36661	17922.85290	876.52702	7125.94665	1203.40176	0.36567	17758.00000	882.00000	7053.00000
1211.62339	0.43171	0.37008	18412.23826	867.41129	7360.32092	1209.59213	0.36890	18250.00000	866.00000	7279.00000
1217.81774	0.42716	0.37397	18946.64823	877.09601	7634.61343	1215.78250	0.37262	18763.00000	876.00000	7541.00000
1224.01210	0.42215	0.37831	19522.38589	879.59709	7932.37588	1221.97287	0.37688	19334.00000	877.00000	7833.00000
1230.20645	0.41719	0.38266	20046.82356	877.27220	8212.63994	1228.16324	0.38122	19884.00000	882.00000	8126.00000
1236.40081	0.41216	0.38711	20578.92550	894.33634	8514.48401	1234.35361	0.38562	20387.00000	878.00000	8401.00000
1242.59516	0.40737	0.39141	21116.97255	904.50586	8815.82589	1240.54398	0.39006	20962.00000	919.00000	8737.00000
1248.78952	0.40362	0.39481	21555.61107	852.78714	9026.34854	1246.73435	0.39380	21399.00000	858.00000	8947.00000
1254.98387	0.40074	0.39743	22112.97196	897.03001	9328.93157	1252.92472	0.39660	21917.00000	878.00000	9222.00000
1261.17823	0.39883	0.39918	22669.33634	902.45329	9591.30357	1259.11509	0.39879	22498.00000	915.00000	9522.00000
1267.37258	0.39894	0.39908	23144.86310	840.51764	9741.60992	1265.30546	0.39931	22985.00000	857.00000	9693.00000
1273.56694	0.40030	0.39784	23720.39347	860.92978	9955.28539	1271.49583	0.39828	23506.00000	841.00000	9868.00000
1279.76129	0.40306	0.39531	24372.77955	913.59084	10187.30879	1277.68620	0.39647	24166.00000	906.00000	10128.00000
1285.95565	0.40857	0.39033	24945.52650	893.87771	10281.86419	1283.87657	0.39218	24754.00000	903.00000	10257.00000
1292.15000	0.41608	0.38364	25532.41484	877.59600	10336.18552	1290.06694	0.38610	25332.00000	880.00000	10321.00000
1298.34435	0.42585	0.37510	26175.67024	884.75253	10371.43665	1296.25731	0.37817	25949.00000	881.00000	10361.00000
1304.53871	0.43849	0.36434	26805.92834	868.00311	10318.25580	1302.44769	0.36830	26610.00000	881.00000	10357.00000
1310.73306	0.45423	0.35138	27432.03993	867.23944	10201.51170	1308.63806	0.35588	27196.00000	853.00000	10228.00000
1316.92742	0.47233	0.33703	28161.82657	892.73544	10083.15735	1314.82843	0.34212	27925.00000	899.00000	10145.00000
1323.12177	0.49318	0.32123	28842.74169	862.95220	9850.95510	1321.01880	0.32665	28606.00000	864.00000	9926.00000
1329.31613	0.51511	0.30541	29519.54369	871.94640	9621.30994	1327.20917	0.31074	29300.00000	874.00000	9707.00000
1335.51048	0.53666	0.29063	30183.25265	863.66515	9384.71950	1333.39954	0.29547	29944.00000	862.00000	9455.00000
1341.70484	0.55646	0.27768	30926.51890	893.32929	9232.89092	1339.58991	0.28189	30673.00000	881.00000	9279.00000
1347.89919	0.57429	0.26651	31587.63481	894.88004	9074.81672	1345.78028	0.27015	31380.00000	904.00000	9137.00000
1354.09355	0.59055	0.25671	32227.78710	859.30420	8911.85197	1351.97065	0.25995	31988.00000	867.00000	8957.00000
1360.28790	0.60698	0.24718	32929.95072	867.11433	8792.61379	1358.16102	0.25054	32704.00000	861.00000	8839.00000
1366.48226	0.62683	0.23614	33569.06337	866.55753	8588.84874	1364.35139	0.24021	33341.00000	873.00000	8672.00000
1372.67661	0.65344	0.22211	34261.83351	843.87902	8266.15002	1370.54176	0.22736	34024.00000	848.00000	8391.00000
1378.87097	0.69005	0.20415	34838.67465	870.52277	7805.20328	1376.73213	0.21081	34668.00000	855.00000	7983.00000
1385.06532	0.73751	0.18302	35121.03064	877.10458	7144.38932	1382.92250	0.19054	35059.00000	888.00000	7399.00000
1391.25968	0.79119	0.16174	35289.43299	872.38486	6438.75074	1389.11287	0.16888	35214.00000	858.00000	6660.00000
1397.45403	0.84396	0.14323	35460.60298	899.47130	5849.94832	1395.30324	0.14927	35427.00000	906.00000	6059.00000
1403.64839	0.89035	0.12872	35666.10671	869.36576	5348.36388	1401.49361	0.13324	35545.00000	870.00000	5490.00000
1409.84274	0.92660	0.11841	36323.03255	883.09719	5079.63111	1407.68398	0.12162	36050.00000	883.00000	5160.00000
1416.03710	0.95384	0.11121	37284.68636	884.03189	4932.35214	1413.87435	0.11341	36926.00000	879.00000	4967.00000
1422.23145	0.97350	0.10629	38329.42739	892.53935	4871.77865	1420.06472	0.10784	37970.00000	895.00000	4893.00000
1428.42581	0.98764	0.10289	39434.74114	878.71439	4845.60077	1426.25509	0.10390	39022.00000	881.00000	4844.00000
1434.62016	0.99714	0.10066	40575.07439	880.06733	4875.77169	1432.44546	0.10137	40203.00000	880.00000	4866.00000
1440.81452	1.00389	0.09911	41493.68414	879.47622	4904.69816	1438.63583	0.09957	41184.00000	879.00000	4892.00000
1447.00887	1.00740	0.09831	42510.04768	905.41306	4995.59493	1444.82620	0.09852	42113.00000	891.00000	4952.00000
1453.20323	1.00961	0.09781	43543.72896	892.86717	5064.52514	1451.01657	0.09800	43229.00000	914.00000	5061.00000
1459.39758	1.01013	0.09769	44405.02794	864.61268	5118.30557	1457.20694	0.09760	44070.00000	855.00000	5073.00000
1465.59194	1.00700	0.09840	45481.34063	906.97918	5293.11020	1463.39731	0.09812	45094.00000	903.00000	5239.00000
1471.78629	1.00191	0.09956	46480.51435	890.87025	5429.88532	1469.58768	0.09906	46150.00000	894.00000	5377.00000
1477.98065	0.99412	0.10136	47320.91755	868.50781	5577.01291	1475.77805	0.10068	47029.00000	883.00000	5529.00000
1484.17500	0.98463	0.10360	48225.65661	857.63729	5765.17735	1481.96842	0.10274	47881.00000	849.00000	5681.00000
1490.36935	0.97372	0.10624	49092.30051	893.89890	6014.34985	1488.15879	0.10528	48824.00000	887.00000	5934.00000
1496.56371	0.96250	0.10902	49778.04514	887.35808	6217.45661	1494.34916	0.10800	49521.00000	891.00000	6143.00000
1502.75806	0.95067	0.11203	50469.48096	863.36996	6420.65363	1500.53953	0.11093	50241.00000	875.00000	6351.00000
1508.95242	0.93828	0.11527	51158.04064	897.54966	6691.22486	1506.72990	0.11408	50884.00000	867.00000	6573.00000
1515.14677	0.92646	0.11845	51878.91086	902.58342	6940.65381	1512.92027	0.11736	51650.00000	933.00000	6885.00000
1521.34113	0.91484	0.12166	52577.57434	850.45197	7143.85220	1519.11064	0.12043	52288.00000	838.00000	7034.00000
1527.53548	0.90262	0.12514	53324.26188	911.75147	7470.32666	1525.30101	0.12393	53098.00000	907.00000	7375.00000
1533.72984	0.89127	0.12845	53919.19306	885.74627	7697.92265	1531.49138	0.12722	53680.00000	890.00000	7606.00000
1539.92419	0.88012	0.13179	54593.00479	874.24673	7953.78454	1537.68175	0.13062	54367.00000	884.00000	7870.00000
1546.11855	0.86965	0.13500	55208.54831	866.87961	8203.32343	1543.87212	0.13381	54973.00000	860.00000	8101.00000
1552.31290	0.85907	0.13833	55811.51925	888.84465	8486.39150	1550.06249	0.13714	55614.00000	887.00000	8392.00000
1558.50726	0.84892	0.14161	56431.29012	888.46797	8753.87040	1556.25286	0.14041	56172.00000	885.00000	8648.00000
1564.70161	0.83948	0.14472	57011.94896	890.80855	9012.33317	1562.44323	0.14363	56858.00000	895.00000	8933.00000
1570.89597	0.83068	0.14768	57413.89650	869.93991	9220.48296	1568.63360	0.14657	57231.00000	876.00000	9136.00000
1577.09032	0.82173	0.15076	57979.03512	879.44141	9487.47035	1574.82397	0.14964	57786.00000	871.00000	9388.00000
1583.28468	0.81344	0.15366	58450.11400	894.72676	9738.73268	1581.01434	0.15262	58279.00000	894.00000	9652.00000
1589.47903	0.80572	0.15642	58825.25008	895.18773	9956.29188	1587.20471	0.15541	58712.00000	892.00000	9878.00000
1595.67339	0.79831	0.15911	59146.72764	885.70009	10155.52454	1593.39508	0.15812	59009.00000	896.00000	10085.00000
1601.86774	0.79099	0.16181	59574.82387	893.37146	10388.68934	1599.58545	0.16081	59419.00000	877.00000	10291.00000
1608.06210	0.78439	0.16429	59920.72690	909.46488	10604.42249	1605.77582	0.16344	59809.00000	920.00000	10545.00000
1614.25645	0.77830	0.16661	60220.95853	887.30010	10772.87106	1611.96619	0.16570	60102.00000	882.00000	10695.00000
1620.45081	0.77265	0.16879	60438.83040	897.12192	10947.24193	1618.15656	0.16809	60391.00000	905.00000	10904.00000
1626.64516	0.76835	0.17047	60579.30309	884.35356	11060.52660	1624.34693	0.16983	60502.00000	878.00000	11004.00000
1632.83952	0.76453	0.17198	60848.95373	899.57786	11209.41183	1630.53730	0.17149	60754.00000	903.00000	11167.00000
1639.03387	0.76142	0.17321	60928.35809	870.27700	11273.06689	1636.72767	0.17271	60938.00000	879.00000	11252.00000
1645.22823	0.75726	0.17488	60778.06969	873.98452	11350.09965	1642.91804	0.17421	60849.00000	868.00000	11317.00000
1651.42258	0.75197	0.17702	59777.88214	914.49031	11334.44177	1649.10841	0.17617	60357.00000	896.00000	11371.00000
1657.61694	0.74718	0.17899	57642.70006	920.63108	11073.08535	1655.29878	0.17837	58452.00000	931.00000	11191.00000
1663.81129	0.74403	0.18029	56689.89176	898.36344	10957.35391	1661.48915	0.17981	56762.00000	897.00000	10942.00000
1670.00565	0.74063	0.18170	55553.85124	917.06266	10844.22578	1667.67952	0.18115	56404.00000	914.00000	10966.00000
1676.20000	0.73785	0.18287	52318.47966	879.24303	10286.82156	1673.86989	0.18252	53497.00000	901.00000	10501.00000
0.00000	0.00000	0.00000	0.00000	0.00000	0.00000	1680.06026	0.18348	50136.00000	860.00000	9901.00000
0.00000	0.00000	0.00000	0.00000	0.00000	0.00000	1686.25063	0.18481	46019.00000	923.00000	9257.00000
0.00000	0.00000	0.00000	0.00000	0.00000	0.00000	1692.44100	0.18481	46019.00000	923.00000	9257.00000
