'File 橘子_2_2016一月28_1124.xls
'Part ID 橘子_2
'Scan Created 2016/1/28 11:24:54
'Instrument S1-00205
'Version 1.5.7
'Integration Time 10100 s
'Number of Scans 50
'Units Absorbance
'Thermistor 49.04
Wavelength	Absorbance	Normalized	100%	dark	Raw 1	Native Wvl	Native Norm	Native 100%	Native dark	Native 1
908.10000	0.46308	0.34429	3595.82598	881.87120	1814.97043	906.26400	0.33345	3684.00000	880.00000	1815.00000
914.29435	0.42053	0.37972	3338.07467	866.26472	1805.25771	912.45437	0.36946	3404.00000	876.00000	1810.00000
920.48871	0.38072	0.41618	3265.72768	878.51909	1872.02296	918.64474	0.40467	3257.00000	860.00000	1830.00000
926.68306	0.34497	0.45189	3334.01990	918.74175	2010.04260	924.83511	0.44250	3324.00000	924.00000	1986.00000
932.87742	0.31727	0.48165	3389.36197	864.93184	2080.99574	931.02548	0.47218	3355.00000	875.00000	2046.00000
939.07177	0.29177	0.51077	3619.59224	884.95115	2281.70233	937.21585	0.50338	3537.00000	873.00000	2214.00000
945.26613	0.28036	0.52437	3856.44440	889.93616	2445.43657	943.40622	0.52205	3802.00000	900.00000	2415.00000
951.46048	0.28236	0.52197	4005.12223	859.91735	2501.66118	949.59659	0.52422	3955.00000	859.00000	2482.00000
957.65484	0.29336	0.50891	4215.51392	893.73656	2584.06711	955.78696	0.51333	4148.00000	885.00000	2560.00000
963.84919	0.30220	0.49866	4374.23623	878.43417	2621.74147	961.97733	0.50043	4344.00000	891.00000	2619.00000
970.04355	0.30243	0.49839	4523.41127	896.06510	2703.91876	968.16770	0.49805	4453.00000	871.00000	2655.00000
976.23790	0.30313	0.49758	4726.50938	925.04592	2816.46166	974.35807	0.49840	4693.00000	945.00000	2813.00000
982.43226	0.30269	0.49809	4835.26800	856.06452	2838.23216	980.54844	0.49669	4778.00000	854.00000	2803.00000
988.62661	0.29698	0.50469	5079.18703	905.14928	3011.58440	986.73881	0.50316	5013.00000	901.00000	2970.00000
994.82097	0.29381	0.50838	5288.13901	870.37131	3116.40289	992.92918	0.50704	5216.00000	881.00000	3079.00000
1001.01532	0.28934	0.51364	5547.24444	876.96250	3275.62492	999.11955	0.51206	5470.00000	867.00000	3224.00000
1007.20968	0.28351	0.52059	5821.73207	889.84005	3457.51463	1005.30992	0.51790	5729.00000	896.00000	3399.00000
1013.40403	0.27201	0.53456	6108.36987	875.33513	3672.51236	1011.50029	0.52935	6031.00000	870.00000	3602.00000
1019.59839	0.25803	0.55204	6349.51155	919.49996	3917.21936	1017.69066	0.54710	6269.00000	908.00000	3841.00000
1025.79274	0.24797	0.56498	6610.09178	908.88037	4129.88936	1023.88103	0.56135	6536.00000	921.00000	4073.00000
1031.98710	0.23911	0.57663	6863.27600	885.10537	4332.33042	1030.07140	0.57288	6776.00000	883.00000	4259.00000
1038.18145	0.23041	0.58828	7137.95533	879.30949	4561.12060	1036.26177	0.58493	7062.00000	892.00000	4501.00000
1044.37581	0.22358	0.59761	7415.45215	852.78191	4774.75635	1042.45214	0.59490	7313.00000	848.00000	4694.00000
1050.57016	0.21828	0.60496	7763.75520	889.74850	5048.18855	1048.64251	0.60295	7664.00000	884.00000	4972.00000
1056.76452	0.21470	0.60996	8043.98752	873.54577	5247.24217	1054.83288	0.60859	7958.00000	881.00000	5188.00000
1062.95887	0.21224	0.61343	8346.47029	875.55305	5458.46211	1061.02325	0.61250	8246.00000	868.00000	5387.00000
1069.15323	0.21173	0.61415	8651.05608	883.28349	5653.77172	1067.21362	0.61441	8564.00000	890.00000	5605.00000
1075.34758	0.21280	0.61264	8931.01237	859.29405	5804.43829	1073.40399	0.61296	8836.00000	860.00000	5749.00000
1081.54194	0.21425	0.61059	9243.78719	871.40916	5983.38890	1079.59436	0.61167	9149.00000	870.00000	5934.00000
1087.73629	0.21790	0.60548	9580.78777	901.76500	6156.79828	1085.78473	0.60718	9462.00000	883.00000	6092.00000
1093.93065	0.22270	0.59883	9940.76391	922.65990	6322.89550	1091.97510	0.60126	9841.00000	933.00000	6289.00000
1100.12500	0.22939	0.58967	10254.38783	869.25749	6403.39940	1098.16547	0.59270	10144.00000	878.00000	6370.00000
1106.31935	0.23657	0.58001	10641.04469	875.00467	6539.39841	1104.35584	0.58304	10519.00000	873.00000	6497.00000
1112.51371	0.24369	0.57057	11015.80766	872.41348	6659.96752	1110.54621	0.57358	10897.00000	874.00000	6623.00000
1118.70806	0.25230	0.55937	11401.60672	872.77123	6762.26950	1116.73658	0.56338	11276.00000	871.00000	6733.00000
1124.90242	0.26535	0.54282	11814.30888	885.70510	6818.08849	1122.92695	0.54885	11680.00000	881.00000	6808.00000
1131.09677	0.28750	0.51582	12236.17715	886.26842	6740.48692	1129.11732	0.52609	12103.00000	890.00000	6789.00000
1137.29113	0.32188	0.47656	12606.57558	854.95675	6455.64616	1135.30769	0.48990	12498.00000	867.00000	6565.00000
1143.48548	0.36087	0.43564	12995.31207	851.62722	6141.50279	1141.49806	0.44820	12851.00000	843.00000	6225.00000
1149.67984	0.39283	0.40474	13491.13514	894.93569	5993.41548	1147.68843	0.41298	13335.00000	884.00000	6026.00000
1155.87419	0.41274	0.38660	13953.07917	885.15852	5936.99324	1153.87880	0.39159	13805.00000	896.00000	5951.00000
1162.06855	0.42517	0.37569	14446.12872	862.12568	5965.55300	1160.06917	0.37840	14279.00000	862.00000	5939.00000
1168.26290	0.43076	0.37089	14959.02414	891.75197	6109.19889	1166.25954	0.37201	14800.00000	881.00000	6059.00000
1174.45726	0.43483	0.36743	15420.71473	898.79570	6234.49537	1172.44991	0.36875	15273.00000	903.00000	6202.00000
1180.65161	0.43981	0.36323	15876.41905	861.08105	6315.19712	1178.64028	0.36444	15728.00000	875.00000	6288.00000
1186.84597	0.44300	0.36058	16371.22020	852.06070	6447.97224	1184.83065	0.36132	16201.00000	846.00000	6394.00000
1193.04032	0.44549	0.35852	16894.18264	880.38932	6621.59427	1191.02102	0.35919	16730.00000	875.00000	6570.00000
1199.23468	0.44651	0.35768	17400.55626	883.09277	6791.09998	1197.21139	0.35762	17229.00000	882.00000	6728.00000
1205.42903	0.44442	0.35940	17922.85290	876.52702	7003.03188	1203.40176	0.35868	17758.00000	882.00000	6935.00000
1211.62339	0.44109	0.36217	18412.23826	867.41129	7221.64243	1209.59213	0.36119	18250.00000	866.00000	7145.00000
1217.81774	0.43729	0.36535	18946.64823	877.09601	7478.76235	1215.78250	0.36429	18763.00000	876.00000	7392.00000
1224.01210	0.43321	0.36880	19522.38589	879.59709	7755.08298	1221.97287	0.36761	19334.00000	877.00000	7662.00000
1230.20645	0.42891	0.37247	20046.82356	877.27220	8017.22155	1228.16324	0.37128	19884.00000	882.00000	7937.00000
1236.40081	0.42461	0.37618	20578.92550	894.33634	8299.27729	1234.35361	0.37490	20387.00000	878.00000	8192.00000
1242.59516	0.42048	0.37977	21116.97255	904.50586	8580.56043	1240.54398	0.37869	20962.00000	919.00000	8509.00000
1248.78952	0.41745	0.38243	21555.61107	852.78714	8770.20120	1246.73435	0.38163	21399.00000	858.00000	8697.00000
1254.98387	0.41488	0.38470	22112.97196	897.03001	9058.85689	1252.92472	0.38395	21917.00000	878.00000	8956.00000
1261.17823	0.41318	0.38620	22669.33634	902.45329	9308.91720	1259.11509	0.38591	22498.00000	915.00000	9244.00000
1267.37258	0.41368	0.38576	23144.86310	840.51764	9444.60262	1265.30546	0.38612	22985.00000	857.00000	9401.00000
1273.56694	0.41545	0.38419	23720.39347	860.92978	9643.42645	1271.49583	0.38473	23506.00000	841.00000	9561.00000
1279.76129	0.41845	0.38155	24372.77955	913.59084	9864.36151	1277.68620	0.38272	24166.00000	906.00000	9808.00000
1285.95565	0.42439	0.37636	24945.52650	893.87771	9945.97623	1283.87657	0.37835	24754.00000	903.00000	9927.00000
1292.15000	0.43254	0.36937	25532.41484	877.59600	9984.44737	1290.06694	0.37187	25332.00000	880.00000	9973.00000
1298.34435	0.44257	0.36093	26175.67024	884.75253	10013.05364	1296.25731	0.36397	25949.00000	881.00000	10005.00000
1304.53871	0.45569	0.35020	26805.92834	868.00311	9951.38178	1302.44769	0.35415	26610.00000	881.00000	9993.00000
1310.73306	0.47187	0.33739	27432.03993	867.23944	9829.80718	1308.63806	0.34180	27196.00000	853.00000	9857.00000
1316.92742	0.49006	0.32355	28161.82657	892.73544	9715.51704	1314.82843	0.32842	27925.00000	899.00000	9775.00000
1323.12177	0.51078	0.30847	28842.74169	862.95220	9493.96557	1321.01880	0.31364	28606.00000	864.00000	9565.00000
1329.31613	0.53259	0.29337	29519.54369	871.94640	9276.19433	1327.20917	0.29846	29300.00000	874.00000	9358.00000
1335.51048	0.55405	0.27922	30183.25265	863.66515	9050.34744	1333.39954	0.28385	29944.00000	862.00000	9117.00000
1341.70484	0.57360	0.26693	30926.51890	893.32929	8910.04155	1339.58991	0.27091	30673.00000	881.00000	8952.00000
1347.89919	0.59115	0.25636	31587.63481	894.88004	8763.34998	1345.78028	0.25981	31380.00000	904.00000	8822.00000
1354.09355	0.60725	0.24703	32227.78710	859.30420	8608.19520	1351.97065	0.25012	31988.00000	867.00000	8651.00000
1360.28790	0.62324	0.23810	32929.95072	867.11433	8501.55476	1358.16102	0.24121	32704.00000	861.00000	8542.00000
1366.48226	0.64271	0.22766	33569.06337	866.55753	8311.56146	1364.35139	0.23158	33341.00000	873.00000	8392.00000
1372.67661	0.66970	0.21394	34261.83351	843.87902	7993.37510	1370.54176	0.21907	34024.00000	848.00000	8116.00000
1378.87097	0.70711	0.19629	34838.67465	870.52277	7538.10022	1376.73213	0.20288	34668.00000	855.00000	7715.00000
1385.06532	0.75768	0.17471	35121.03064	877.10458	6860.06280	1382.92250	0.18252	35059.00000	888.00000	7125.00000
1391.25968	0.81797	0.15207	35289.43299	872.38486	6105.83779	1389.11287	0.15974	35214.00000	858.00000	6346.00000
1397.45403	0.87974	0.13190	35460.60298	899.47130	5458.48572	1395.30324	0.13852	35427.00000	906.00000	5688.00000
1403.64839	0.93640	0.11577	35666.10671	869.36576	4897.65918	1401.49361	0.12084	35545.00000	870.00000	5060.00000
1409.84274	0.98212	0.10420	36323.03255	883.09719	4576.02080	1407.68398	0.10777	36050.00000	883.00000	4673.00000
1416.03710	1.01633	0.09631	37284.68636	884.03189	4389.79045	1413.87435	0.09870	36926.00000	879.00000	4437.00000
1422.23145	1.04124	0.09094	38329.42739	892.53935	4297.06512	1420.06472	0.09262	37970.00000	895.00000	4329.00000
1428.42581	1.05911	0.08727	39434.74114	878.71439	4243.66453	1426.25509	0.08836	39022.00000	881.00000	4251.00000
1434.62016	1.07126	0.08487	40575.07439	880.06733	4248.81547	1432.44546	0.08565	40203.00000	880.00000	4248.00000
1440.81452	1.07982	0.08321	41493.68414	879.47622	4259.01096	1438.63583	0.08366	41184.00000	879.00000	4251.00000
1447.00887	1.08369	0.08247	42510.04768	905.41306	4336.65229	1444.82620	0.08267	42113.00000	891.00000	4299.00000
1453.20323	1.08671	0.08190	43543.72896	892.86717	4386.01554	1451.01657	0.08212	43229.00000	914.00000	4389.00000
1459.39758	1.08722	0.08180	44405.02794	864.61268	4426.45788	1457.20694	0.08168	44070.00000	855.00000	4385.00000
1465.59194	1.08272	0.08266	45481.34063	906.97918	4591.31128	1463.39731	0.08232	45094.00000	903.00000	4541.00000
1471.78629	1.07635	0.08388	46480.51435	890.87025	4714.86266	1469.58768	0.08337	46150.00000	894.00000	4667.00000
1477.98065	1.06654	0.08579	47320.91755	868.50781	4853.82998	1475.77805	0.08503	47029.00000	883.00000	4807.00000
1484.17500	1.05389	0.08833	48225.65661	857.63729	5041.74521	1481.96842	0.08737	47881.00000	849.00000	4958.00000
1490.36935	1.03982	0.09124	49092.30051	893.89890	5291.39788	1488.15879	0.09018	48824.00000	887.00000	5210.00000
1496.56371	1.02518	0.09437	49778.04514	887.35808	5501.14670	1494.34916	0.09321	49521.00000	891.00000	5424.00000
1502.75806	1.00983	0.09776	50469.48096	863.36996	5712.90646	1500.53953	0.09652	50241.00000	875.00000	5640.00000
1508.95242	0.99390	0.10141	51158.04064	897.54966	5994.74256	1506.72990	0.10007	50884.00000	867.00000	5872.00000
1515.14677	0.97843	0.10509	51878.91086	902.58342	6259.68575	1512.92027	0.10381	51650.00000	933.00000	6198.00000
1521.34113	0.96328	0.10882	52577.57434	850.45197	6479.68270	1519.11064	0.10741	52288.00000	838.00000	6364.00000
1527.53548	0.94761	0.11282	53324.26188	911.75147	6824.86804	1525.30101	0.11142	53098.00000	907.00000	6722.00000
1533.72984	0.93329	0.11660	53919.19306	885.74627	7069.69263	1531.49138	0.11523	53680.00000	890.00000	6973.00000
1539.92419	0.91944	0.12038	54593.00479	874.24673	7340.97311	1537.68175	0.11903	54367.00000	884.00000	7250.00000
1546.11855	0.90609	0.12414	55208.54831	866.87961	7612.86049	1543.87212	0.12276	54973.00000	860.00000	7503.00000
1552.31290	0.89296	0.12795	55811.51925	888.84465	7916.13187	1550.06249	0.12657	55614.00000	887.00000	7814.00000
1558.50726	0.88044	0.13169	56431.29012	888.46797	8203.24084	1556.25286	0.13034	56172.00000	885.00000	8091.00000
1564.70161	0.86896	0.13522	57011.94896	890.80855	8479.37299	1562.44323	0.13398	56858.00000	895.00000	8393.00000
1570.89597	0.85822	0.13861	57413.89650	869.93991	8707.40466	1568.63360	0.13734	57231.00000	876.00000	8616.00000
1577.09032	0.84749	0.14207	57979.03512	879.44141	8991.65211	1574.82397	0.14082	57786.00000	871.00000	8886.00000
1583.28468	0.83760	0.14534	58450.11400	894.72676	9260.17196	1581.01434	0.14417	58279.00000	894.00000	9167.00000
1589.47903	0.82848	0.14843	58825.25008	895.18773	9493.61188	1587.20471	0.14732	58712.00000	892.00000	9410.00000
1595.67339	0.81985	0.15141	59146.72764	885.70009	9706.90533	1593.39508	0.15031	59009.00000	896.00000	9631.00000
1601.86774	0.81141	0.15438	59574.82387	893.37146	9952.60957	1599.58545	0.15329	59419.00000	877.00000	9851.00000
1608.06210	0.80377	0.15712	59920.72690	909.46488	10181.19099	1605.77582	0.15616	59809.00000	920.00000	10116.00000
1614.25645	0.79663	0.15973	60220.95853	887.30010	10364.43637	1611.96619	0.15873	60102.00000	882.00000	10282.00000
1620.45081	0.78994	0.16220	60438.83040	897.12192	10554.93188	1618.15656	0.16137	60391.00000	905.00000	10504.00000
1626.64516	0.78414	0.16438	60579.30309	884.35356	10697.25753	1624.34693	0.16354	60502.00000	878.00000	10629.00000
1632.83952	0.77850	0.16653	60848.95373	899.57786	10883.03832	1630.53730	0.16580	60754.00000	903.00000	10826.00000
1639.03387	0.77368	0.16839	60928.35809	870.27700	10983.42349	1636.72767	0.16769	60938.00000	879.00000	10950.00000
1645.22823	0.76874	0.17032	60778.06969	873.98452	11076.84346	1642.91804	0.16960	60849.00000	868.00000	11041.00000
1651.42258	0.76324	0.17249	59777.88214	914.49031	11067.48725	1649.10841	0.17161	60357.00000	896.00000	11100.00000
1657.61694	0.75832	0.17446	57642.70006	920.63108	10816.11374	1655.29878	0.17387	58452.00000	931.00000	10932.00000
1663.81129	0.75562	0.17554	56689.89176	898.36344	10692.53986	1661.48915	0.17515	56762.00000	897.00000	10682.00000
1670.00565	0.75186	0.17707	55553.85124	917.06266	10590.62416	1667.67952	0.17637	56404.00000	914.00000	10701.00000
1676.20000	0.74765	0.17879	52318.47966	879.24303	10077.15085	1673.86989	0.17825	53497.00000	901.00000	10276.00000
0.00000	0.00000	0.00000	0.00000	0.00000	0.00000	1680.06026	0.17970	50136.00000	860.00000	9715.00000
0.00000	0.00000	0.00000	0.00000	0.00000	0.00000	1686.25063	0.18150	46019.00000	923.00000	9108.00000
0.00000	0.00000	0.00000	0.00000	0.00000	0.00000	1692.44100	0.18150	46019.00000	923.00000	9108.00000
