'File 橘子_5_2016一月28_1125.xls
'Part ID 橘子_5
'Scan Created 2016/1/28 11:25:13
'Instrument S1-00205
'Version 1.5.7
'Integration Time 10100 s
'Number of Scans 50
'Units Absorbance
'Thermistor 48.72
Wavelength	Absorbance	Normalized	100%	dark	Raw 1	Native Wvl	Native Norm	Native 100%	Native dark	Native 1
908.10000	0.47756	0.33299	3595.82598	881.87120	1784.27810	906.26400	0.32168	3684.00000	880.00000	1782.00000
914.29435	0.43105	0.37064	3338.07467	866.26472	1782.81069	912.45437	0.35957	3404.00000	876.00000	1785.00000
920.48871	0.38747	0.40976	3265.72768	878.51909	1856.68998	918.64474	0.39758	3257.00000	860.00000	1813.00000
926.68306	0.34910	0.44761	3334.01990	918.74175	1999.71765	924.83511	0.43750	3324.00000	924.00000	1974.00000
932.87742	0.31961	0.47906	3389.36197	864.93184	2074.44826	931.02548	0.46935	3355.00000	875.00000	2039.00000
939.07177	0.29404	0.50812	3619.59224	884.95115	2274.46509	937.21585	0.50075	3537.00000	873.00000	2207.00000
945.26613	0.28280	0.52143	3856.44440	889.93616	2436.70775	943.40622	0.51930	3802.00000	900.00000	2407.00000
951.46048	0.28615	0.51743	4005.12223	859.91735	2487.40811	949.59659	0.52035	3955.00000	859.00000	2470.00000
957.65484	0.30021	0.50095	4215.51392	893.73656	2557.57693	955.78696	0.50659	4148.00000	885.00000	2538.00000
963.84919	0.31183	0.48772	4374.23623	878.43417	2583.52414	961.97733	0.49001	4344.00000	891.00000	2583.00000
970.04355	0.31227	0.48723	4523.41127	896.06510	2663.45253	968.16770	0.48688	4453.00000	871.00000	2615.00000
976.23790	0.31362	0.48571	4726.50938	925.04592	2771.31509	974.35807	0.48693	4693.00000	945.00000	2770.00000
982.43226	0.31398	0.48531	4835.26800	856.06452	2787.37642	980.54844	0.48394	4778.00000	854.00000	2753.00000
988.62661	0.30719	0.49295	5079.18703	905.14928	2962.60263	986.73881	0.49100	5013.00000	901.00000	2920.00000
994.82097	0.30296	0.49778	5288.13901	870.37131	3069.59797	992.92918	0.49619	5216.00000	881.00000	3032.00000
1001.01532	0.29788	0.50364	5547.24444	876.96250	3228.90630	999.11955	0.50185	5470.00000	867.00000	3177.00000
1007.20968	0.29062	0.51213	5821.73207	889.84005	3415.85717	1005.30992	0.50879	5729.00000	896.00000	3355.00000
1013.40403	0.27736	0.52801	6108.36987	875.33513	3638.17150	1011.50029	0.52238	6031.00000	870.00000	3566.00000
1019.59839	0.26220	0.54676	6349.51155	919.49996	3888.58659	1017.69066	0.54132	6269.00000	908.00000	3810.00000
1025.79274	0.25055	0.56163	6610.09178	908.88037	4110.75951	1023.88103	0.55744	6536.00000	921.00000	4051.00000
1031.98710	0.24010	0.57531	6863.27600	885.10537	4324.46329	1030.07140	0.57085	6776.00000	883.00000	4247.00000
1038.18145	0.22973	0.58922	7137.95533	879.30949	4566.94358	1036.26177	0.58525	7062.00000	892.00000	4503.00000
1044.37581	0.22181	0.60005	7415.45215	852.78191	4790.78092	1042.45214	0.59691	7313.00000	848.00000	4707.00000
1050.57016	0.21553	0.60880	7763.75520	889.74850	5074.61474	1048.64251	0.60634	7664.00000	884.00000	4995.00000
1056.76452	0.21103	0.61513	8043.98752	873.54577	5284.30045	1054.83288	0.61340	7958.00000	881.00000	5222.00000
1062.95887	0.20816	0.61922	8346.47029	875.55305	5501.67719	1061.02325	0.61819	8246.00000	868.00000	5429.00000
1069.15323	0.20735	0.62037	8651.05608	883.28349	5702.14992	1067.21362	0.62041	8564.00000	890.00000	5651.00000
1075.34758	0.20815	0.61923	8931.01237	859.29405	5857.56148	1073.40399	0.61961	8836.00000	860.00000	5802.00000
1081.54194	0.20999	0.61661	9243.78719	871.40916	6033.86944	1079.59436	0.61783	9149.00000	870.00000	5985.00000
1087.73629	0.21384	0.61117	9580.78777	901.76500	6206.12421	1085.78473	0.61301	9462.00000	883.00000	6142.00000
1093.93065	0.21903	0.60391	9940.76391	922.65990	6368.72989	1091.97510	0.60653	9841.00000	933.00000	6336.00000
1100.12500	0.22634	0.59383	10254.38783	869.25749	6442.42441	1098.16547	0.59724	10144.00000	878.00000	6412.00000
1106.31935	0.23448	0.58280	10641.04469	875.00467	6566.61975	1104.35584	0.58625	10519.00000	873.00000	6528.00000
1112.51371	0.24258	0.57204	11015.80766	872.41348	6674.83555	1110.54621	0.57548	10897.00000	874.00000	6642.00000
1118.70806	0.25232	0.55935	11401.60672	872.77123	6762.04697	1116.73658	0.56386	11276.00000	871.00000	6738.00000
1124.90242	0.26716	0.54056	11814.30888	885.70510	6793.39972	1122.92695	0.54746	11680.00000	881.00000	6793.00000
1131.09677	0.29274	0.50964	12236.17715	886.26842	6670.25021	1129.11732	0.52136	12103.00000	890.00000	6736.00000
1137.29113	0.33264	0.46490	12606.57558	854.95675	6318.62401	1135.30769	0.48010	12498.00000	867.00000	6451.00000
1143.48548	0.37822	0.41858	12995.31207	851.62722	5934.35104	1141.49806	0.43271	12851.00000	843.00000	6039.00000
1149.67984	0.41570	0.38397	13491.13514	894.93569	5731.83559	1147.68843	0.39322	13335.00000	884.00000	5780.00000
1155.87419	0.43910	0.36383	13953.07917	885.15852	5639.57126	1153.87880	0.36928	13805.00000	896.00000	5663.00000
1162.06855	0.45347	0.35199	14446.12872	862.12568	5643.59556	1160.06917	0.35500	14279.00000	862.00000	5625.00000
1168.26290	0.46042	0.34640	14959.02414	891.75197	5764.76932	1166.25954	0.34773	14800.00000	881.00000	5721.00000
1174.45726	0.46529	0.34254	15420.71473	898.79570	5873.08114	1172.44991	0.34398	15273.00000	903.00000	5846.00000
1180.65161	0.47127	0.33785	15876.41905	861.08105	5934.08932	1178.64028	0.33926	15728.00000	875.00000	5914.00000
1186.84597	0.47559	0.33451	16371.22020	852.06070	6043.43764	1184.83065	0.33546	16201.00000	846.00000	5997.00000
1193.04032	0.47910	0.33182	16894.18264	880.38932	6193.98261	1191.02102	0.33270	16730.00000	875.00000	6150.00000
1199.23468	0.48053	0.33073	17400.55626	883.09277	6345.94675	1197.21139	0.33064	17229.00000	882.00000	6287.00000
1205.42903	0.47803	0.33263	17922.85290	876.52702	6546.67091	1203.40176	0.33189	17758.00000	882.00000	6483.00000
1211.62339	0.47426	0.33554	18412.23826	867.41129	6754.37187	1209.59213	0.33445	18250.00000	866.00000	6680.00000
1217.81774	0.46951	0.33922	18946.64823	877.09601	7006.72186	1215.78250	0.33801	18763.00000	876.00000	6922.00000
1224.01210	0.46457	0.34311	19522.38589	879.59709	7276.17314	1221.97287	0.34177	19334.00000	877.00000	7185.00000
1230.20645	0.45937	0.34724	20046.82356	877.27220	7533.62329	1228.16324	0.34591	19884.00000	882.00000	7455.00000
1236.40081	0.45425	0.35136	20578.92550	894.33634	7810.67850	1234.35361	0.34994	20387.00000	878.00000	7705.00000
1242.59516	0.44936	0.35533	21116.97255	904.50586	8086.63215	1240.54398	0.35414	20962.00000	919.00000	8017.00000
1248.78952	0.44563	0.35840	21555.61107	852.78714	8272.68423	1246.73435	0.35743	21399.00000	858.00000	8200.00000
1254.98387	0.44241	0.36107	22112.97196	897.03001	8557.50541	1252.92472	0.36024	21917.00000	878.00000	8457.00000
1261.17823	0.44043	0.36272	22669.33634	902.45329	8797.79196	1259.11509	0.36237	22498.00000	915.00000	8736.00000
1267.37258	0.44077	0.36243	23144.86310	840.51764	8924.34566	1265.30546	0.36275	22985.00000	857.00000	8884.00000
1273.56694	0.44275	0.36079	23720.39347	860.92978	9108.34571	1271.49583	0.36139	23506.00000	841.00000	9032.00000
1279.76129	0.44630	0.35785	24372.77955	913.59084	9308.39208	1277.68620	0.35911	24166.00000	906.00000	9259.00000
1285.95565	0.45304	0.35234	24945.52650	893.87771	9368.25079	1283.87657	0.35445	24754.00000	903.00000	9357.00000
1292.15000	0.46239	0.34484	25532.41484	877.59600	9379.53480	1290.06694	0.34754	25332.00000	880.00000	9378.00000
1298.34435	0.47399	0.33575	26175.67024	884.75253	9376.00591	1296.25731	0.33900	25949.00000	881.00000	9379.00000
1304.53871	0.48898	0.32435	26805.92834	868.00311	9281.10816	1302.44769	0.32854	26610.00000	881.00000	9334.00000
1310.73306	0.50746	0.31084	27432.03993	867.23944	9124.67129	1308.63806	0.31549	27196.00000	853.00000	9164.00000
1316.92742	0.52815	0.29638	28161.82657	892.73544	8974.73124	1314.82843	0.30145	27925.00000	899.00000	9046.00000
1323.12177	0.55159	0.28081	28842.74169	862.95220	8719.80956	1321.01880	0.28614	28606.00000	864.00000	8802.00000
1329.31613	0.57604	0.26543	29519.54369	871.94640	8476.04755	1327.20917	0.27056	29300.00000	874.00000	8565.00000
1335.51048	0.59982	0.25129	30183.25265	863.66515	8231.45392	1333.39954	0.25593	29944.00000	862.00000	8305.00000
1341.70484	0.62135	0.23914	30926.51890	893.32929	8075.37064	1339.58991	0.24302	30673.00000	881.00000	8121.00000
1347.89919	0.64013	0.22902	31587.63481	894.88004	7924.13268	1345.78028	0.23231	31380.00000	904.00000	7984.00000
1354.09355	0.65732	0.22013	32227.78710	859.30420	7764.37562	1351.97065	0.22306	31988.00000	867.00000	7809.00000
1360.28790	0.67420	0.21174	32929.95072	867.11433	7656.26878	1358.16102	0.21465	32704.00000	861.00000	7696.00000
1366.48226	0.69423	0.20220	33569.06337	866.55753	7478.81382	1364.35139	0.20574	33341.00000	873.00000	7553.00000
1372.67661	0.72122	0.19001	34261.83351	843.87902	7193.57139	1370.54176	0.19454	34024.00000	848.00000	7302.00000
1378.87097	0.75747	0.17480	34838.67465	870.52277	6808.05287	1376.73213	0.18040	34668.00000	855.00000	6955.00000
1385.06532	0.80427	0.15694	35121.03064	877.10458	6251.34271	1382.92250	0.16333	35059.00000	888.00000	6469.00000
1391.25968	0.85823	0.13860	35289.43299	872.38486	5642.53074	1389.11287	0.14481	35214.00000	858.00000	5833.00000
1397.45403	0.91223	0.12240	35460.60298	899.47130	5129.83039	1395.30324	0.12769	35427.00000	906.00000	5314.00000
1403.64839	0.96058	0.10950	35666.10671	869.36576	4679.60690	1401.49361	0.11357	35545.00000	870.00000	4808.00000
1409.84274	0.99954	0.10011	36323.03255	883.09719	4430.80560	1407.68398	0.10302	36050.00000	883.00000	4506.00000
1416.03710	1.02884	0.09358	37284.68636	884.03189	4290.24508	1413.87435	0.09557	36926.00000	879.00000	4324.00000
1422.23145	1.05018	0.08909	38329.42739	892.53935	4227.73610	1420.06472	0.09049	37970.00000	895.00000	4250.00000
1428.42581	1.06594	0.08591	39434.74114	878.71439	4191.14629	1426.25509	0.08689	39022.00000	881.00000	4195.00000
1434.62016	1.07694	0.08377	40575.07439	880.06733	4205.15031	1432.44546	0.08443	40203.00000	880.00000	4200.00000
1440.81452	1.08400	0.08241	41493.68414	879.47622	4226.60834	1438.63583	0.08279	41184.00000	879.00000	4216.00000
1447.00887	1.08730	0.08179	42510.04768	905.41306	4308.25957	1444.82620	0.08195	42113.00000	891.00000	4269.00000
1453.20323	1.08996	0.08129	43543.72896	892.86717	4359.91249	1451.01657	0.08151	43229.00000	914.00000	4363.00000
1459.39758	1.09080	0.08113	44405.02794	864.61268	4397.26297	1457.20694	0.08104	44070.00000	855.00000	4357.00000
1465.59194	1.08709	0.08183	45481.34063	906.97918	4554.45135	1463.39731	0.08158	45094.00000	903.00000	4508.00000
1471.78629	1.08193	0.08281	46480.51435	890.87025	4666.04002	1469.58768	0.08238	46150.00000	894.00000	4622.00000
1477.98065	1.07384	0.08437	47320.91755	868.50781	4787.41783	1475.77805	0.08378	47029.00000	883.00000	4749.00000
1484.17500	1.06359	0.08638	48225.65661	857.63729	4949.31730	1481.96842	0.08558	47881.00000	849.00000	4874.00000
1490.36935	1.05174	0.08877	49092.30051	893.89890	5172.31333	1488.15879	0.08793	48824.00000	887.00000	5102.00000
1496.56371	1.03975	0.09125	49778.04514	887.35808	5348.85611	1494.34916	0.09031	49521.00000	891.00000	5283.00000
1502.75806	1.02686	0.09400	50469.48096	863.36996	5526.40752	1500.53953	0.09302	50241.00000	875.00000	5467.00000
1508.95242	1.01354	0.09693	51158.04064	897.54966	5769.36007	1506.72990	0.09583	50884.00000	867.00000	5660.00000
1515.14677	1.00054	0.09987	51878.91086	902.58342	5993.74477	1512.92027	0.09888	51650.00000	933.00000	5948.00000
1521.34113	0.98806	0.10279	52577.57434	850.45197	6167.50080	1519.11064	0.10165	52288.00000	838.00000	6068.00000
1527.53548	0.97478	0.10598	53324.26188	911.75147	6466.32367	1525.30101	0.10488	53098.00000	907.00000	6381.00000
1533.72984	0.96283	0.10893	53919.19306	885.74627	6663.02635	1531.49138	0.10784	53680.00000	890.00000	6583.00000
1539.92419	0.95105	0.11193	54593.00479	874.24673	6886.92313	1537.68175	0.11088	54367.00000	884.00000	6814.00000
1546.11855	0.93990	0.11484	55208.54831	866.87961	7107.62667	1543.87212	0.11376	54973.00000	860.00000	7016.00000
1552.31290	0.92874	0.11783	55811.51925	888.84465	7360.41223	1550.06249	0.11676	55614.00000	887.00000	7277.00000
1558.50726	0.91811	0.12075	56431.29012	888.46797	7595.51011	1556.25286	0.11968	56172.00000	885.00000	7502.00000
1564.70161	0.90822	0.12353	57011.94896	890.80855	7823.47341	1562.44323	0.12256	56858.00000	895.00000	7754.00000
1570.89597	0.89900	0.12618	57413.89650	869.93991	8004.92352	1568.63360	0.12519	57231.00000	876.00000	7931.00000
1577.09032	0.88976	0.12889	57979.03512	879.44141	8239.21097	1574.82397	0.12793	57786.00000	871.00000	8152.00000
1583.28468	0.88135	0.13142	58450.11400	894.72676	8458.57668	1581.01434	0.13050	58279.00000	894.00000	8383.00000
1589.47903	0.87327	0.13388	58825.25008	895.18773	8651.08460	1587.20471	0.13298	58712.00000	892.00000	8581.00000
1595.67339	0.86562	0.13626	59146.72764	885.70009	8824.62666	1593.39508	0.13541	59009.00000	896.00000	8765.00000
1601.86774	0.85834	0.13857	59574.82387	893.37146	9024.69630	1599.58545	0.13771	59419.00000	877.00000	8939.00000
1608.06210	0.85149	0.14077	59920.72690	909.46488	9216.40676	1605.77582	0.13999	59809.00000	920.00000	9164.00000
1614.25645	0.84513	0.14285	60220.95853	887.30010	9362.98109	1611.96619	0.14206	60102.00000	882.00000	9295.00000
1620.45081	0.83935	0.14476	60438.83040	897.12192	9516.31923	1618.15656	0.14412	60391.00000	905.00000	9478.00000
1626.64516	0.83426	0.14647	60579.30309	884.35356	9627.70472	1624.34693	0.14580	60502.00000	878.00000	9571.00000
1632.83952	0.82945	0.14810	60848.95373	899.57786	9777.94698	1630.53730	0.14757	60754.00000	903.00000	9735.00000
1639.03387	0.82545	0.14947	60928.35809	870.27700	9846.99375	1636.72767	0.14892	60938.00000	879.00000	9823.00000
1645.22823	0.82098	0.15101	60778.06969	873.98452	9920.57008	1642.91804	0.15045	60849.00000	868.00000	9892.00000
1651.42258	0.81541	0.15296	59777.88214	914.49031	9918.10650	1649.10841	0.15212	60357.00000	896.00000	9941.00000
1657.61694	0.80966	0.15500	57642.70006	920.63108	9712.75816	1655.29878	0.15438	58452.00000	931.00000	9811.00000
1663.81129	0.80685	0.15601	56689.89176	898.36344	9602.67689	1661.48915	0.15570	56762.00000	897.00000	9595.00000
1670.00565	0.80310	0.15736	55553.85124	917.06266	9513.94374	1667.67952	0.15669	56404.00000	914.00000	9609.00000
1676.20000	0.79824	0.15913	52318.47966	879.24303	9065.85452	1673.86989	0.15857	53497.00000	901.00000	9241.00000
0.00000	0.00000	0.00000	0.00000	0.00000	0.00000	1680.06026	0.16004	50136.00000	860.00000	8746.00000
0.00000	0.00000	0.00000	0.00000	0.00000	0.00000	1686.25063	0.16174	46019.00000	923.00000	8217.00000
0.00000	0.00000	0.00000	0.00000	0.00000	0.00000	1692.44100	0.16174	46019.00000	923.00000	8217.00000
