'File 橘子_3_2016一月28_1125.xls
'Part ID 橘子_3
'Scan Created 2016/1/28 11:25:02
'Instrument S1-00205
'Version 1.5.7
'Integration Time 10100 s
'Number of Scans 50
'Units Absorbance
'Thermistor 49.04
Wavelength	Absorbance	Normalized	100%	dark	Raw 1	Native Wvl	Native Norm	Native 100%	Native dark	Native 1
908.10000	0.50933	0.30951	3595.82598	881.87120	1720.63701	906.26400	0.29922	3684.00000	880.00000	1719.00000
914.29435	0.46436	0.34328	3338.07467	866.26472	1715.14448	912.45437	0.33347	3404.00000	876.00000	1719.00000
920.48871	0.42243	0.37807	3265.72768	878.51909	1781.04054	918.64474	0.36713	3257.00000	860.00000	1740.00000
926.68306	0.38542	0.41170	3334.01990	918.74175	1912.98702	924.83511	0.40292	3324.00000	924.00000	1891.00000
932.87742	0.35700	0.43954	3389.36197	864.93184	1974.69805	931.02548	0.43065	3355.00000	875.00000	1943.00000
939.07177	0.33111	0.46654	3619.59224	884.95115	2160.75237	937.21585	0.45983	3537.00000	873.00000	2098.00000
945.26613	0.32132	0.47717	3856.44440	889.93616	2305.40617	943.40622	0.47588	3802.00000	900.00000	2281.00000
951.46048	0.32614	0.47192	4005.12223	859.91735	2344.27687	949.59659	0.47481	3955.00000	859.00000	2329.00000
957.65484	0.33998	0.45711	4215.51392	893.73656	2411.96930	955.78696	0.46215	4148.00000	885.00000	2393.00000
963.84919	0.35171	0.44492	4374.23623	878.43417	2433.91217	961.97733	0.44715	4344.00000	891.00000	2435.00000
970.04355	0.35235	0.44427	4523.41127	896.06510	2507.62921	968.16770	0.44389	4453.00000	871.00000	2461.00000
976.23790	0.35294	0.44367	4726.50938	925.04592	2611.49803	974.35807	0.44450	4693.00000	945.00000	2611.00000
982.43226	0.35303	0.44358	4835.26800	856.06452	2621.28960	980.54844	0.44241	4778.00000	854.00000	2590.00000
988.62661	0.34659	0.45020	5079.18703	905.14928	2784.18580	986.73881	0.44844	5013.00000	901.00000	2745.00000
994.82097	0.34222	0.45476	5288.13901	870.37131	2879.50251	992.92918	0.45329	5216.00000	881.00000	2846.00000
1001.01532	0.33681	0.46046	5547.24444	876.96250	3027.28581	999.11955	0.45861	5470.00000	867.00000	2978.00000
1007.20968	0.32928	0.46851	5821.73207	889.84005	3200.68247	1005.30992	0.46555	5729.00000	896.00000	3146.00000
1013.40403	0.31652	0.48248	6108.36987	875.33513	3399.97820	1011.50029	0.47743	6031.00000	870.00000	3334.00000
1019.59839	0.30095	0.50009	6349.51155	919.49996	3635.19291	1017.69066	0.49487	6269.00000	908.00000	3561.00000
1025.79274	0.28905	0.51398	6610.09178	908.88037	3839.06580	1023.88103	0.51024	6536.00000	921.00000	3786.00000
1031.98710	0.27901	0.52600	6863.27600	885.10537	4029.75809	1030.07140	0.52198	6776.00000	883.00000	3959.00000
1038.18145	0.26861	0.53875	7137.95533	879.30949	4251.09490	1036.26177	0.53517	7062.00000	892.00000	4194.00000
1044.37581	0.26067	0.54869	7415.45215	852.78191	4453.70911	1042.45214	0.54571	7313.00000	848.00000	4376.00000
1050.57016	0.25418	0.55696	7763.75520	889.74850	4718.24827	1048.64251	0.55472	7664.00000	884.00000	4645.00000
1056.76452	0.24987	0.56251	8043.98752	873.54577	4907.00924	1054.83288	0.56097	7958.00000	881.00000	4851.00000
1062.95887	0.24695	0.56631	8346.47029	875.55305	5106.38140	1061.02325	0.56533	8246.00000	868.00000	5039.00000
1069.15323	0.24602	0.56752	8651.05608	883.28349	5291.61480	1067.21362	0.56750	8564.00000	890.00000	5245.00000
1075.34758	0.24689	0.56639	8931.01237	859.29405	5431.05970	1073.40399	0.56683	8836.00000	860.00000	5381.00000
1081.54194	0.24886	0.56382	9243.78719	871.40916	5591.89763	1079.59436	0.56492	9149.00000	870.00000	5547.00000
1087.73629	0.25277	0.55877	9580.78777	901.76500	5751.34741	1085.78473	0.56055	9462.00000	883.00000	5692.00000
1093.93065	0.25826	0.55174	9940.76391	922.65990	5898.35305	1091.97510	0.55422	9841.00000	933.00000	5870.00000
1100.12500	0.26574	0.54233	10254.38783	869.25749	5959.03012	1098.16547	0.54554	10144.00000	878.00000	5933.00000
1106.31935	0.27397	0.53215	10641.04469	875.00467	6072.04566	1104.35584	0.53525	10519.00000	873.00000	6036.00000
1112.51371	0.28204	0.52234	11015.80766	872.41348	6170.73330	1110.54621	0.52559	10897.00000	874.00000	6142.00000
1118.70806	0.29207	0.51042	11401.60672	872.77123	6246.94256	1116.73658	0.51456	11276.00000	871.00000	6225.00000
1124.90242	0.30702	0.49315	11814.30888	885.70510	6275.29384	1122.92695	0.49958	11680.00000	881.00000	6276.00000
1131.09677	0.33284	0.46468	12236.17715	886.26842	6160.13407	1129.11732	0.47534	12103.00000	890.00000	6220.00000
1137.29113	0.37231	0.42432	12606.57558	854.95675	5841.63175	1135.30769	0.43805	12498.00000	867.00000	5962.00000
1143.48548	0.41707	0.38277	12995.31207	851.62722	5499.49314	1141.49806	0.39532	12851.00000	843.00000	5590.00000
1149.67984	0.45285	0.35249	13491.13514	894.93569	5335.25445	1147.68843	0.36053	13335.00000	884.00000	5373.00000
1155.87419	0.47489	0.33505	13953.07917	885.15852	5263.45863	1153.87880	0.33976	13805.00000	896.00000	5282.00000
1162.06855	0.48809	0.32502	14446.12872	862.12568	5277.26395	1160.06917	0.32749	14279.00000	862.00000	5256.00000
1168.26290	0.49404	0.32060	14959.02414	891.75197	5401.76253	1166.25954	0.32165	14800.00000	881.00000	5358.00000
1174.45726	0.49803	0.31766	15420.71473	898.79570	5511.82029	1172.44991	0.31872	15273.00000	903.00000	5483.00000
1180.65161	0.50272	0.31426	15876.41905	861.08105	5579.75117	1178.64028	0.31529	15728.00000	875.00000	5558.00000
1186.84597	0.50636	0.31163	16371.22020	852.06070	5688.26737	1184.83065	0.31241	16201.00000	846.00000	5643.00000
1193.04032	0.50904	0.30972	16894.18264	880.38932	5840.11235	1191.02102	0.31025	16730.00000	875.00000	5794.00000
1199.23468	0.50963	0.30929	17400.55626	883.09277	5991.85967	1197.21139	0.30917	17229.00000	882.00000	5936.00000
1205.42903	0.50726	0.31099	17922.85290	876.52702	6177.69683	1203.40176	0.31026	17758.00000	882.00000	6118.00000
1211.62339	0.50350	0.31369	18412.23826	867.41129	6371.02812	1209.59213	0.31276	18250.00000	866.00000	6303.00000
1217.81774	0.49927	0.31676	18946.64823	877.09601	6600.78935	1215.78250	0.31570	18763.00000	876.00000	6523.00000
1224.01210	0.49448	0.32027	19522.38589	879.59709	6850.32790	1221.97287	0.31907	19334.00000	877.00000	6766.00000
1230.20645	0.48969	0.32383	20046.82356	877.27220	7084.81230	1228.16324	0.32270	19884.00000	882.00000	7014.00000
1236.40081	0.48486	0.32745	20578.92550	894.33634	7340.06374	1234.35361	0.32616	20387.00000	878.00000	7241.00000
1242.59516	0.48000	0.33113	21116.97255	904.50586	7597.36756	1240.54398	0.33004	20962.00000	919.00000	7534.00000
1248.78952	0.47659	0.33374	21555.61107	852.78714	7762.22140	1246.73435	0.33294	21399.00000	858.00000	7697.00000
1254.98387	0.47361	0.33604	22112.97196	897.03001	8026.38632	1252.92472	0.33528	21917.00000	878.00000	7932.00000
1261.17823	0.47163	0.33757	22669.33634	902.45329	8250.32915	1259.11509	0.33726	22498.00000	915.00000	8194.00000
1267.37258	0.47210	0.33721	23144.86310	840.51764	8361.76833	1265.30546	0.33754	22985.00000	857.00000	8326.00000
1273.56694	0.47402	0.33572	23720.39347	860.92978	8535.44902	1271.49583	0.33625	23506.00000	841.00000	8462.00000
1279.76129	0.47730	0.33320	24372.77955	913.59084	8730.17126	1277.68620	0.33431	24166.00000	906.00000	8682.00000
1285.95565	0.48375	0.32829	24945.52650	893.87771	8789.67192	1283.87657	0.33017	24754.00000	903.00000	8778.00000
1292.15000	0.49273	0.32157	25532.41484	877.59600	8805.81538	1290.06694	0.32398	25332.00000	880.00000	8802.00000
1298.34435	0.50375	0.31351	26175.67024	884.75253	8813.69937	1296.25731	0.31638	25949.00000	881.00000	8812.00000
1304.53871	0.51790	0.30346	26805.92834	868.00311	8739.12840	1302.44769	0.30716	26610.00000	881.00000	8784.00000
1310.73306	0.53539	0.29148	27432.03993	867.23944	8610.32944	1308.63806	0.29560	27196.00000	853.00000	8640.00000
1316.92742	0.55501	0.27860	28161.82657	892.73544	8489.95375	1314.82843	0.28313	27925.00000	899.00000	8551.00000
1323.12177	0.57723	0.26471	28842.74169	862.95220	8269.43057	1321.01880	0.26945	28606.00000	864.00000	8339.00000
1329.31613	0.60042	0.25094	29519.54369	871.94640	8060.92289	1327.20917	0.25558	29300.00000	874.00000	8139.00000
1335.51048	0.62319	0.23813	30183.25265	863.66515	7845.50309	1333.39954	0.24231	29944.00000	862.00000	7909.00000
1341.70484	0.64374	0.22712	30926.51890	893.32929	7714.61139	1339.58991	0.23067	30673.00000	881.00000	7753.00000
1347.89919	0.66200	0.21777	31587.63481	894.88004	7578.95551	1345.78028	0.22083	31380.00000	904.00000	7634.00000
1354.09355	0.67881	0.20950	32227.78710	859.30420	7430.99374	1351.97065	0.21224	31988.00000	867.00000	7472.00000
1360.28790	0.69541	0.20165	32929.95072	867.11433	7332.65581	1358.16102	0.20438	32704.00000	861.00000	7369.00000
1366.48226	0.71550	0.19253	33569.06337	866.55753	7162.71166	1364.35139	0.19595	33341.00000	873.00000	7235.00000
1372.67661	0.74320	0.18063	34261.83351	843.87902	6880.23478	1370.54176	0.18507	34024.00000	848.00000	6988.00000
1378.87097	0.78142	0.16542	34838.67465	870.52277	6489.39946	1376.73213	0.17109	34668.00000	855.00000	6640.00000
1385.06532	0.83266	0.14701	35121.03064	877.10458	5911.36371	1382.92250	0.15364	35059.00000	888.00000	6138.00000
1391.25968	0.89344	0.12781	35289.43299	872.38486	5271.01504	1389.11287	0.13433	35214.00000	858.00000	5473.00000
1397.45403	0.95606	0.11065	35460.60298	899.47130	4723.81137	1395.30324	0.11628	35427.00000	906.00000	4920.00000
1403.64839	1.01311	0.09703	35666.10671	869.36576	4245.51507	1401.49361	0.10128	35545.00000	870.00000	4382.00000
1409.84274	1.05905	0.08729	36323.03255	883.09719	3976.47338	1407.68398	0.09031	36050.00000	883.00000	4059.00000
1416.03710	1.09322	0.08068	37284.68636	884.03189	3820.98121	1413.87435	0.08264	36926.00000	879.00000	3858.00000
1422.23145	1.11707	0.07637	38329.42739	892.53935	3751.63424	1420.06472	0.07773	37970.00000	895.00000	3777.00000
1428.42581	1.13486	0.07331	39434.74114	878.71439	3705.07778	1426.25509	0.07422	39022.00000	881.00000	3712.00000
1434.62016	1.14678	0.07132	40575.07439	880.06733	3711.19981	1432.44546	0.07194	40203.00000	880.00000	3709.00000
1440.81452	1.15478	0.07002	41493.68414	879.47622	3723.23446	1438.63583	0.07039	41184.00000	879.00000	3716.00000
1447.00887	1.15804	0.06950	42510.04768	905.41306	3796.78896	1444.82620	0.06960	42113.00000	891.00000	3760.00000
1453.20323	1.16040	0.06912	43543.72896	892.86717	3840.77099	1451.01657	0.06931	43229.00000	914.00000	3847.00000
1459.39758	1.16140	0.06896	44405.02794	864.61268	3867.24668	1457.20694	0.06886	44070.00000	855.00000	3831.00000
1465.59194	1.15672	0.06971	45481.34063	906.97918	4014.12132	1463.39731	0.06943	45094.00000	903.00000	3971.00000
1471.78629	1.15022	0.07076	46480.51435	890.87025	4116.77138	1469.58768	0.07031	46150.00000	894.00000	4076.00000
1477.98065	1.14050	0.07236	47320.91755	868.50781	4229.73421	1475.77805	0.07175	47029.00000	883.00000	4194.00000
1484.17500	1.12804	0.07447	48225.65661	857.63729	4385.00314	1481.96842	0.07363	47881.00000	849.00000	4312.00000
1490.36935	1.11348	0.07700	49092.30051	893.89890	4605.32461	1488.15879	0.07610	48824.00000	887.00000	4535.00000
1496.56371	1.09896	0.07962	49778.04514	887.35808	4780.27204	1494.34916	0.07866	49521.00000	891.00000	4716.00000
1502.75806	1.08348	0.08251	50469.48096	863.36996	4956.45580	1500.53953	0.08145	50241.00000	875.00000	4896.00000
1508.95242	1.06729	0.08565	51158.04064	897.54966	5202.23747	1506.72990	0.08449	50884.00000	867.00000	5093.00000
1515.14677	1.05180	0.08876	51878.91086	902.58342	5426.99388	1512.92027	0.08768	51650.00000	933.00000	5380.00000
1521.34113	1.03653	0.09193	52577.57434	850.45197	5605.94926	1519.11064	0.09071	52288.00000	838.00000	5505.00000
1527.53548	1.02062	0.09536	53324.26188	911.75147	5909.85551	1525.30101	0.09417	53098.00000	907.00000	5822.00000
1533.72984	1.00613	0.09860	53919.19306	885.74627	6114.82311	1531.49138	0.09740	53680.00000	890.00000	6032.00000
1539.92419	0.99186	0.10189	54593.00479	874.24673	6347.70506	1537.68175	0.10072	54367.00000	884.00000	6271.00000
1546.11855	0.97832	0.10512	55208.54831	866.87961	6579.34268	1543.87212	0.10393	54973.00000	860.00000	6484.00000
1552.31290	0.96497	0.10840	55811.51925	888.84465	6842.32887	1550.06249	0.10722	55614.00000	887.00000	6755.00000
1558.50726	0.95225	0.11162	56431.29012	888.46797	7088.42741	1556.25286	0.11044	56172.00000	885.00000	6991.00000
1564.70161	0.94025	0.11475	57011.94896	890.80855	7330.56272	1562.44323	0.11365	56858.00000	895.00000	7255.00000
1570.89597	0.92922	0.11770	57413.89650	869.93991	7525.35499	1568.63360	0.11662	57231.00000	876.00000	7448.00000
1577.09032	0.91833	0.12069	57979.03512	879.44141	7770.73297	1574.82397	0.11960	57786.00000	871.00000	7678.00000
1583.28468	0.90807	0.12358	58450.11400	894.72676	8007.24576	1581.01434	0.12254	58279.00000	894.00000	7926.00000
1589.47903	0.89868	0.12628	58825.25008	895.18773	8210.27420	1587.20471	0.12530	58712.00000	892.00000	8137.00000
1595.67339	0.88982	0.12888	59146.72764	885.70009	8394.27392	1593.39508	0.12792	59009.00000	896.00000	8330.00000
1601.86774	0.88113	0.13148	59574.82387	893.37146	8609.04879	1599.58545	0.13052	59419.00000	877.00000	8518.00000
1608.06210	0.87319	0.13391	59920.72690	909.46488	8811.60078	1605.77582	0.13306	59809.00000	920.00000	8756.00000
1614.25645	0.86594	0.13616	60220.95853	887.30010	8966.47492	1611.96619	0.13531	60102.00000	882.00000	8895.00000
1620.45081	0.85914	0.13831	60438.83040	897.12192	9132.42355	1618.15656	0.13758	60391.00000	905.00000	9089.00000
1626.64516	0.85318	0.14022	60579.30309	884.35356	9255.04630	1624.34693	0.13949	60502.00000	878.00000	9195.00000
1632.83952	0.84741	0.14210	60848.95373	899.57786	9418.36761	1630.53730	0.14145	60754.00000	903.00000	9369.00000
1639.03387	0.84252	0.14371	60928.35809	870.27700	9501.07047	1636.72767	0.14311	60938.00000	879.00000	9474.00000
1645.22823	0.83761	0.14534	60778.06969	873.98452	9580.84212	1642.91804	0.14473	60849.00000	868.00000	9549.00000
1651.42258	0.83135	0.14745	59777.88214	914.49031	9593.71342	1649.10841	0.14655	60357.00000	896.00000	9610.00000
1657.61694	0.82484	0.14968	57642.70006	920.63108	9410.68074	1655.29878	0.14897	58452.00000	931.00000	9500.00000
1663.81129	0.82207	0.15063	56689.89176	898.36344	9302.96183	1661.48915	0.15042	56762.00000	897.00000	9300.00000
1670.00565	0.81829	0.15195	55553.85124	917.06266	9218.41484	1667.67952	0.15120	56404.00000	914.00000	9304.00000
1676.20000	0.81220	0.15410	52318.47966	879.24303	8807.09154	1673.86989	0.15343	53497.00000	901.00000	8971.00000
0.00000	0.00000	0.00000	0.00000	0.00000	0.00000	1680.06026	0.15509	50136.00000	860.00000	8502.00000
0.00000	0.00000	0.00000	0.00000	0.00000	0.00000	1686.25063	0.15693	46019.00000	923.00000	8000.00000
0.00000	0.00000	0.00000	0.00000	0.00000	0.00000	1692.44100	0.15693	46019.00000	923.00000	8000.00000
