'File 橙子_3_2016一月28_1118.xls
'Part ID 橙子_3
'Scan Created 2016/1/28 11:18:20
'Instrument S1-00205
'Version 1.5.7
'Integration Time 10100 s
'Number of Scans 50
'Units Absorbance
'Thermistor 48.07
Wavelength	Absorbance	Normalized	100%	dark	Raw 1	Native Wvl	Native Norm	Native 100%	Native dark	Native 1
908.10000	0.40287	0.39549	3595.82598	881.87120	1953.62155	906.26400	0.38195	3684.00000	880.00000	1951.00000
914.29435	0.35620	0.44035	3338.07467	866.26472	1955.20875	912.45437	0.42722	3404.00000	876.00000	1956.00000
920.48871	0.31354	0.48580	3265.72768	878.51909	2038.21754	918.64474	0.47184	3257.00000	860.00000	1991.00000
926.68306	0.27484	0.53108	3334.01990	918.74175	2201.30497	924.83511	0.51833	3324.00000	924.00000	2168.00000
932.87742	0.24251	0.57213	3389.36197	864.93184	2309.39277	931.02548	0.55968	3355.00000	875.00000	2263.00000
939.07177	0.21539	0.60899	3619.59224	884.95115	2550.31947	937.21585	0.59947	3537.00000	873.00000	2470.00000
945.26613	0.20156	0.62869	3856.44440	889.93616	2754.90875	943.40622	0.62474	3802.00000	900.00000	2713.00000
951.46048	0.20116	0.62927	4005.12223	859.91735	2839.14180	949.59659	0.63114	3955.00000	859.00000	2813.00000
957.65484	0.21079	0.61547	4215.51392	893.73656	2938.03009	955.78696	0.62029	4148.00000	885.00000	2909.00000
963.84919	0.21841	0.60476	4374.23623	878.43417	2992.73375	961.97733	0.60643	4344.00000	891.00000	2985.00000
970.04355	0.21954	0.60319	4523.41127	896.06510	3083.98383	968.16770	0.60385	4453.00000	871.00000	3034.00000
976.23790	0.22182	0.60004	4726.50938	925.04592	3206.06857	974.35807	0.60085	4693.00000	945.00000	3197.00000
982.43226	0.22081	0.60143	4835.26800	856.06452	3249.37567	980.54844	0.60015	4778.00000	854.00000	3209.00000
988.62661	0.21681	0.60701	5079.18703	905.14928	3438.71701	986.73881	0.60554	5013.00000	901.00000	3391.00000
994.82097	0.21361	0.61149	5288.13901	870.37131	3571.95455	992.92918	0.60992	5216.00000	881.00000	3525.00000
1001.01532	0.20997	0.61664	5547.24444	876.96250	3756.62560	999.11955	0.61525	5470.00000	867.00000	3699.00000
1007.20968	0.20463	0.62426	5821.73207	889.84005	3968.94811	1005.30992	0.62094	5729.00000	896.00000	3897.00000
1013.40403	0.19306	0.64112	6108.36987	875.33513	4230.06212	1011.50029	0.63515	6031.00000	870.00000	4148.00000
1019.59839	0.17994	0.66079	6349.51155	919.49996	4507.75377	1017.69066	0.65510	6269.00000	908.00000	4420.00000
1025.79274	0.16981	0.67639	6610.09178	908.88037	4764.99696	1023.88103	0.67195	6536.00000	921.00000	4694.00000
1031.98710	0.16050	0.69103	6863.27600	885.10537	5016.28848	1030.07140	0.68624	6776.00000	883.00000	4927.00000
1038.18145	0.15113	0.70611	7137.95533	879.30949	5298.54047	1036.26177	0.70178	7062.00000	892.00000	5222.00000
1044.37581	0.14399	0.71780	7415.45215	852.78191	5563.51282	1042.45214	0.71446	7313.00000	848.00000	5467.00000
1050.57016	0.13834	0.72721	7763.75520	889.74850	5888.56561	1048.64251	0.72448	7664.00000	884.00000	5796.00000
1056.76452	0.13398	0.73455	8043.98752	873.54577	6140.56411	1054.83288	0.73251	7958.00000	881.00000	6065.00000
1062.95887	0.13115	0.73936	8346.47029	875.55305	6399.24335	1061.02325	0.73814	8246.00000	868.00000	6314.00000
1069.15323	0.13011	0.74112	8651.05608	883.28349	6640.10746	1067.21362	0.74094	8564.00000	890.00000	6576.00000
1075.34758	0.13021	0.74095	8931.01237	859.29405	6840.07127	1073.40399	0.74097	8836.00000	860.00000	6770.00000
1081.54194	0.13116	0.73933	9243.78719	871.40916	7061.31089	1079.59436	0.74031	9149.00000	870.00000	6999.00000
1087.73629	0.13436	0.73390	9580.78777	901.76500	7271.32333	1085.78473	0.73587	9462.00000	883.00000	7196.00000
1093.93065	0.13880	0.72644	9940.76391	922.65990	7473.83260	1091.97510	0.72901	9841.00000	933.00000	7427.00000
1100.12500	0.14470	0.71664	10254.38783	869.25749	7595.01164	1098.16547	0.72005	10144.00000	878.00000	7550.00000
1106.31935	0.15172	0.70515	10641.04469	875.00467	7761.61539	1104.35584	0.70879	10519.00000	873.00000	7710.00000
1112.51371	0.15895	0.69350	11015.80766	872.41348	7906.85757	1110.54621	0.69730	10897.00000	874.00000	7863.00000
1118.70806	0.16717	0.68050	11401.60672	872.77123	8037.69945	1116.73658	0.68486	11276.00000	871.00000	7997.00000
1124.90242	0.17886	0.66243	11814.30888	885.70510	8125.29003	1122.92695	0.66923	11680.00000	881.00000	8108.00000
1131.09677	0.19980	0.63125	12236.17715	886.26842	8050.61262	1129.11732	0.64309	12103.00000	890.00000	8101.00000
1137.29113	0.23270	0.58520	12606.57558	854.95675	7732.30964	1135.30769	0.60107	12498.00000	867.00000	7858.00000
1143.48548	0.27137	0.53534	12995.31207	851.62722	7352.20424	1141.49806	0.55080	12851.00000	843.00000	7457.00000
1149.67984	0.30426	0.49630	13491.13514	894.93569	7146.73782	1147.68843	0.50695	13335.00000	884.00000	7196.00000
1155.87419	0.32629	0.47175	13953.07917	885.15852	7049.76167	1153.87880	0.47866	13805.00000	896.00000	7075.00000
1162.06855	0.34131	0.45571	14446.12872	862.12568	7052.53598	1160.06917	0.45994	14279.00000	862.00000	7033.00000
1168.26290	0.34957	0.44712	14959.02414	891.75197	7181.65818	1166.25954	0.44931	14800.00000	881.00000	7135.00000
1174.45726	0.35582	0.44073	15420.71473	898.79570	7298.99194	1172.44991	0.44301	15273.00000	903.00000	7269.00000
1180.65161	0.36309	0.43342	15876.41905	861.08105	7369.06791	1178.64028	0.43567	15728.00000	875.00000	7346.00000
1186.84597	0.36903	0.42753	16371.22020	852.06070	7487.05384	1184.83065	0.42931	16201.00000	846.00000	7438.00000
1193.04032	0.37448	0.42220	16894.18264	880.38932	7641.33378	1191.02102	0.42397	16730.00000	875.00000	7597.00000
1199.23468	0.37754	0.41924	17400.55626	883.09277	7807.90138	1197.21139	0.41953	17229.00000	882.00000	7740.00000
1205.42903	0.37520	0.42150	17922.85290	876.52702	8061.60133	1203.40176	0.42042	17758.00000	882.00000	7977.00000
1211.62339	0.37062	0.42597	18412.23826	867.41129	8340.99151	1209.59213	0.42436	18250.00000	866.00000	8243.00000
1217.81774	0.36519	0.43133	18946.64823	877.09601	8670.99033	1215.78250	0.42953	18763.00000	876.00000	8559.00000
1224.01210	0.35933	0.43719	19522.38589	879.59709	9030.15028	1221.97287	0.43517	19334.00000	877.00000	8909.00000
1230.20645	0.35325	0.44335	20046.82356	877.27220	9376.05789	1228.16324	0.44137	19884.00000	882.00000	9269.00000
1236.40081	0.34750	0.44926	20578.92550	894.33634	9737.86003	1234.35361	0.44728	20387.00000	878.00000	9604.00000
1242.59516	0.34191	0.45508	21116.97255	904.50586	10102.73940	1240.54398	0.45323	20962.00000	919.00000	10003.00000
1248.78952	0.33744	0.45979	21555.61107	852.78714	10371.69777	1246.73435	0.45840	21399.00000	858.00000	10274.00000
1254.98387	0.33417	0.46327	22112.97196	897.03001	10725.76632	1252.92472	0.46219	21917.00000	878.00000	10602.00000
1261.17823	0.33177	0.46584	22669.33634	902.45329	11042.25053	1259.11509	0.46513	22498.00000	915.00000	10954.00000
1267.37258	0.33114	0.46651	23144.86310	840.51764	11245.67022	1265.30546	0.46656	22985.00000	857.00000	11181.00000
1273.56694	0.33224	0.46533	23720.39347	860.92978	11498.05788	1271.49583	0.46583	23506.00000	841.00000	11399.00000
1279.76129	0.33488	0.46251	24372.77955	913.59084	11763.71396	1277.68620	0.46376	24166.00000	906.00000	11693.00000
1285.95565	0.33994	0.45716	24945.52650	893.87771	11889.24273	1283.87657	0.45918	24754.00000	903.00000	11855.00000
1292.15000	0.34703	0.44974	25532.41484	877.59600	11965.98815	1290.06694	0.45248	25332.00000	880.00000	11944.00000
1298.34435	0.35648	0.44006	26175.67024	884.75253	12014.28719	1296.25731	0.44359	25949.00000	881.00000	12001.00000
1304.53871	0.36900	0.42757	26805.92834	868.00311	11958.29403	1302.44769	0.43216	26610.00000	881.00000	12000.00000
1310.73306	0.38487	0.41222	27432.03993	867.23944	11817.72727	1308.63806	0.41764	27196.00000	853.00000	11855.00000
1316.92742	0.40362	0.39480	28161.82657	892.73544	11658.67549	1314.82843	0.40095	27925.00000	899.00000	11735.00000
1323.12177	0.42512	0.37573	28842.74169	862.95220	11375.88414	1321.01880	0.38231	28606.00000	864.00000	11470.00000
1329.31613	0.44810	0.35637	29519.54369	871.94640	11081.13038	1327.20917	0.36291	29300.00000	874.00000	11190.00000
1335.51048	0.47090	0.33815	30183.25265	863.66515	10777.90598	1333.39954	0.34413	29944.00000	862.00000	10870.00000
1341.70484	0.49197	0.32213	30926.51890	893.32929	10567.88626	1339.58991	0.32734	30673.00000	881.00000	10633.00000
1347.89919	0.51082	0.30845	31587.63481	894.88004	10362.07481	1345.78028	0.31287	31380.00000	904.00000	10439.00000
1354.09355	0.52803	0.29646	32227.78710	859.30420	10158.71763	1351.97065	0.30047	31988.00000	867.00000	10218.00000
1360.28790	0.54554	0.28475	32929.95072	867.11433	9997.22955	1358.16102	0.28882	32704.00000	861.00000	10058.00000
1366.48226	0.56584	0.27175	33569.06337	866.55753	9753.24294	1364.35139	0.27649	33341.00000	873.00000	9850.00000
1372.67661	0.59251	0.25556	34261.83351	843.87902	9384.06452	1370.54176	0.26160	34024.00000	848.00000	9527.00000
1378.87097	0.62924	0.23483	34838.67465	870.52277	8847.41508	1376.73213	0.24254	34668.00000	855.00000	9056.00000
1385.06532	0.67695	0.21040	35121.03064	877.10458	8082.25098	1382.92250	0.21907	35059.00000	888.00000	8374.00000
1391.25968	0.73070	0.18591	35289.43299	872.38486	7270.67266	1389.11287	0.19414	35214.00000	858.00000	7528.00000
1397.45403	0.78349	0.16463	35460.60298	899.47130	6589.60734	1395.30324	0.17155	35427.00000	906.00000	6828.00000
1403.64839	0.82961	0.14805	35666.10671	869.36576	6020.75819	1401.49361	0.15322	35545.00000	870.00000	6183.00000
1409.84274	0.86629	0.13605	36323.03255	883.09719	5704.77630	1407.68398	0.13982	36050.00000	883.00000	5800.00000
1416.03710	0.89432	0.12755	37284.68636	884.03189	5527.03698	1413.87435	0.13014	36926.00000	879.00000	5570.00000
1422.23145	0.91517	0.12157	38329.42739	892.53935	5443.74574	1420.06472	0.12351	37970.00000	895.00000	5474.00000
1428.42581	0.93143	0.11710	39434.74114	878.71439	5393.77815	1426.25509	0.11846	39022.00000	881.00000	5399.00000
1434.62016	0.94262	0.11413	40575.07439	880.06733	5410.30822	1432.44546	0.11507	40203.00000	880.00000	5405.00000
1440.81452	0.95101	0.11194	41493.68414	879.47622	5425.83734	1438.63583	0.11262	41184.00000	879.00000	5418.00000
1447.00887	0.95615	0.11062	42510.04768	905.41306	5507.87597	1444.82620	0.11098	42113.00000	891.00000	5466.00000
1453.20323	0.95931	0.10982	43543.72896	892.86717	5576.88514	1451.01657	0.11010	43229.00000	914.00000	5573.00000
1459.39758	0.96066	0.10948	44405.02794	864.61268	5631.47344	1457.20694	0.10948	44070.00000	855.00000	5586.00000
1465.59194	0.95899	0.10990	45481.34063	906.97918	5805.76323	1463.39731	0.10973	45094.00000	903.00000	5752.00000
1471.78629	0.95550	0.11079	46480.51435	890.87025	5941.79842	1469.58768	0.11037	46150.00000	894.00000	5889.00000
1477.98065	0.94909	0.11244	47320.91755	868.50781	6091.51288	1475.77805	0.11180	47029.00000	883.00000	6042.00000
1484.17500	0.94111	0.11452	48225.65661	857.63729	6282.33466	1481.96842	0.11373	47881.00000	849.00000	6198.00000
1490.36935	0.93226	0.11688	49092.30051	893.89890	6527.20117	1488.15879	0.11603	48824.00000	887.00000	6449.00000
1496.56371	0.92280	0.11945	49778.04514	887.35808	6727.65900	1494.34916	0.11849	49521.00000	891.00000	6653.00000
1502.75806	0.91255	0.12231	50469.48096	863.36996	6930.40884	1500.53953	0.12128	50241.00000	875.00000	6862.00000
1508.95242	0.90218	0.12526	51158.04064	897.54966	7193.29095	1506.72990	0.12418	50884.00000	867.00000	7078.00000
1515.14677	0.89179	0.12830	51878.91086	902.58342	7442.59760	1512.92027	0.12722	51650.00000	933.00000	7385.00000
1521.34113	0.88145	0.13139	52577.57434	850.45197	7646.77388	1519.11064	0.13024	52288.00000	838.00000	7539.00000
1527.53548	0.87112	0.13455	53324.26188	911.75147	7963.70651	1525.30101	0.13343	53098.00000	907.00000	7871.00000
1533.72984	0.86126	0.13764	53919.19306	885.74627	8185.22371	1531.49138	0.13650	53680.00000	890.00000	8096.00000
1539.92419	0.85150	0.14077	54593.00479	874.24673	8435.94479	1537.68175	0.13965	54367.00000	884.00000	8353.00000
1546.11855	0.84234	0.14377	55208.54831	866.87961	8679.46758	1543.87212	0.14268	54973.00000	860.00000	8581.00000
1552.31290	0.83327	0.14680	55811.51925	888.84465	8951.48272	1550.06249	0.14569	55614.00000	887.00000	8860.00000
1558.50726	0.82423	0.14989	56431.29012	888.46797	9213.77707	1556.25286	0.14877	56172.00000	885.00000	9110.00000
1564.70161	0.81598	0.15277	57011.94896	890.80855	9464.01254	1562.44323	0.15176	56858.00000	895.00000	9388.00000
1570.89597	0.80808	0.15557	57413.89650	869.93991	9666.38550	1568.63360	0.15450	57231.00000	876.00000	9583.00000
1577.09032	0.79989	0.15853	57979.03512	879.44141	9931.28273	1574.82397	0.15746	57786.00000	871.00000	9833.00000
1583.28468	0.79225	0.16134	58450.11400	894.72676	10180.93432	1581.01434	0.16032	58279.00000	894.00000	10094.00000
1589.47903	0.78501	0.16405	58825.25008	895.18773	10398.79166	1587.20471	0.16308	58712.00000	892.00000	10321.00000
1595.67339	0.77802	0.16672	59146.72764	885.70009	10598.81334	1593.39508	0.16573	59009.00000	896.00000	10527.00000
1601.86774	0.77115	0.16937	59574.82387	893.37146	10832.46783	1599.58545	0.16841	59419.00000	877.00000	10736.00000
1608.06210	0.76472	0.17190	59920.72690	909.46488	11053.61146	1605.77582	0.17098	59809.00000	920.00000	10989.00000
1614.25645	0.75855	0.17436	60220.95853	887.30010	11232.83580	1611.96619	0.17345	60102.00000	882.00000	11154.00000
1620.45081	0.75315	0.17654	60438.83040	897.12192	11408.79192	1618.15656	0.17581	60391.00000	905.00000	11363.00000
1626.64516	0.74898	0.17825	60579.30309	884.35356	11524.85382	1624.34693	0.17765	60502.00000	878.00000	11470.00000
1632.83952	0.74585	0.17953	60848.95373	899.57786	11662.56756	1630.53730	0.17913	60754.00000	903.00000	11624.00000
1639.03387	0.74311	0.18067	60928.35809	870.27700	11720.98107	1636.72767	0.18019	60938.00000	879.00000	11701.00000
1645.22823	0.73883	0.18246	60778.06969	873.98452	11804.27672	1642.91804	0.18171	60849.00000	868.00000	11767.00000
1651.42258	0.73314	0.18487	59777.88214	914.49031	11796.23673	1649.10841	0.18392	60357.00000	896.00000	11832.00000
1657.61694	0.72806	0.18704	57642.70006	920.63108	11529.98728	1655.29878	0.18635	58452.00000	931.00000	11650.00000
1663.81129	0.72470	0.18849	56689.89176	898.36344	11415.02171	1661.48915	0.18797	56762.00000	897.00000	11398.00000
1670.00565	0.72172	0.18979	55553.85124	917.06266	11286.31358	1667.67952	0.18933	56404.00000	914.00000	11420.00000
1676.20000	0.71995	0.19057	52318.47966	879.24303	10682.15453	1673.86989	0.19038	53497.00000	901.00000	10914.00000
0.00000	0.00000	0.00000	0.00000	0.00000	0.00000	1680.06026	0.19076	50136.00000	860.00000	10260.00000
0.00000	0.00000	0.00000	0.00000	0.00000	0.00000	1686.25063	0.19113	46019.00000	923.00000	9542.00000
0.00000	0.00000	0.00000	0.00000	0.00000	0.00000	1692.44100	0.19113	46019.00000	923.00000	9542.00000
