'File 橙子_1_2016一月28_1117.xls
'Part ID 橙子_1
'Scan Created 2016/1/28 11:17:11
'Instrument S1-00205
'Version 1.5.7
'Integration Time 10100 s
'Number of Scans 50
'Units Absorbance
'Thermistor 47.75
Wavelength	Absorbance	Normalized	100%	dark	Raw 1	Native Wvl	Native Norm	Native 100%	Native dark	Native 1
908.10000	0.38076	0.41614	3595.82598	881.87120	2009.74931	906.26400	0.40300	3684.00000	880.00000	2010.00000
914.29435	0.33664	0.46064	3338.07467	866.26472	2005.30693	912.45437	0.44739	3404.00000	876.00000	2007.00000
920.48871	0.29674	0.50496	3265.72768	878.51909	2083.95132	918.64474	0.49186	3257.00000	860.00000	2039.00000
926.68306	0.26179	0.54728	3334.01990	918.74175	2240.45513	924.83511	0.53500	3324.00000	924.00000	2208.00000
932.87742	0.23051	0.58816	3389.36197	864.93184	2349.85291	931.02548	0.57581	3355.00000	875.00000	2303.00000
939.07177	0.20479	0.62404	3619.59224	884.95115	2591.46900	937.21585	0.61486	3537.00000	873.00000	2511.00000
945.26613	0.19170	0.64314	3856.44440	889.93616	2797.75865	943.40622	0.63921	3802.00000	900.00000	2755.00000
951.46048	0.19034	0.64515	4005.12223	859.91735	2889.11769	949.59659	0.64632	3955.00000	859.00000	2860.00000
957.65484	0.19845	0.63321	4215.51392	893.73656	2996.91378	955.78696	0.63776	4148.00000	885.00000	2966.00000
963.84919	0.20548	0.62305	4374.23623	878.43417	3056.65323	961.97733	0.62438	4344.00000	891.00000	3047.00000
970.04355	0.20528	0.62333	4523.41127	896.06510	3157.01370	968.16770	0.62339	4453.00000	871.00000	3104.00000
976.23790	0.20634	0.62181	4726.50938	925.04592	3288.83365	974.35807	0.62220	4693.00000	945.00000	3277.00000
982.43226	0.20483	0.62398	4835.26800	856.06452	3339.09920	980.54844	0.62258	4778.00000	854.00000	3297.00000
988.62661	0.20091	0.62964	5079.18703	905.14928	3533.17469	986.73881	0.62816	5013.00000	901.00000	3484.00000
994.82097	0.19788	0.63404	5288.13901	870.37131	3671.54903	992.92918	0.63253	5216.00000	881.00000	3623.00000
1001.01532	0.19452	0.63897	5547.24444	876.96250	3860.92899	999.11955	0.63763	5470.00000	867.00000	3802.00000
1007.20968	0.18963	0.64620	5821.73207	889.84005	4077.12638	1005.30992	0.64308	5729.00000	896.00000	4004.00000
1013.40403	0.17905	0.66215	6108.36987	875.33513	4340.11807	1011.50029	0.65646	6031.00000	870.00000	4258.00000
1019.59839	0.16701	0.68076	6349.51155	919.49996	4616.17486	1017.69066	0.67543	6269.00000	908.00000	4529.00000
1025.79274	0.15777	0.69540	6610.09178	908.88037	4873.43825	1023.88103	0.69118	6536.00000	921.00000	4802.00000
1031.98710	0.14950	0.70876	6863.27600	885.10537	5122.22212	1030.07140	0.70456	6776.00000	883.00000	5035.00000
1038.18145	0.14134	0.72220	7137.95533	879.30949	5399.29907	1036.26177	0.71815	7062.00000	892.00000	5323.00000
1044.37581	0.13474	0.73326	7415.45215	852.78191	5664.88610	1042.45214	0.73024	7313.00000	848.00000	5569.00000
1050.57016	0.13002	0.74127	7763.75520	889.74850	5985.24557	1048.64251	0.73894	7664.00000	884.00000	5894.00000
1056.76452	0.12624	0.74775	8043.98752	873.54577	6235.25457	1054.83288	0.74594	7958.00000	881.00000	6160.00000
1062.95887	0.12387	0.75185	8346.47029	875.55305	6492.58145	1061.02325	0.75088	8246.00000	868.00000	6408.00000
1069.15323	0.12306	0.75325	8651.05608	883.28349	6734.34504	1067.21362	0.75306	8564.00000	890.00000	6669.00000
1075.34758	0.12324	0.75293	8931.01237	859.29405	6936.76774	1073.40399	0.75313	8836.00000	860.00000	6867.00000
1081.54194	0.12436	0.75100	9243.78719	871.40916	7159.06955	1079.59436	0.75190	9149.00000	870.00000	7095.00000
1087.73629	0.12718	0.74615	9580.78777	901.76500	7377.56571	1085.78473	0.74799	9462.00000	883.00000	7300.00000
1093.93065	0.13128	0.73913	9940.76391	922.65990	7588.21497	1091.97510	0.74147	9841.00000	933.00000	7538.00000
1100.12500	0.13645	0.73038	10254.38783	869.25749	7723.90151	1098.16547	0.73343	10144.00000	878.00000	7674.00000
1106.31935	0.14264	0.72005	10641.04469	875.00467	7907.08647	1104.35584	0.72330	10519.00000	873.00000	7850.00000
1112.51371	0.14894	0.70968	11015.80766	872.41348	8070.97861	1110.54621	0.71306	10897.00000	874.00000	8021.00000
1118.70806	0.15638	0.69762	11401.60672	872.77123	8217.93837	1116.73658	0.70178	11276.00000	871.00000	8173.00000
1124.90242	0.16720	0.68045	11814.30888	885.70510	8322.18724	1122.92695	0.68682	11680.00000	881.00000	8298.00000
1131.09677	0.18589	0.65179	12236.17715	886.26842	8283.71876	1129.11732	0.66262	12103.00000	890.00000	8320.00000
1137.29113	0.21505	0.60946	12606.57558	854.95675	8017.44256	1135.30769	0.62411	12498.00000	867.00000	8126.00000
1143.48548	0.24940	0.56312	12995.31207	851.62722	7689.54844	1141.49806	0.57753	12851.00000	843.00000	7778.00000
1149.67984	0.27849	0.52663	13491.13514	894.93569	7528.81867	1147.68843	0.53658	13335.00000	884.00000	7565.00000
1155.87419	0.29761	0.50395	13953.07917	885.15852	7470.58889	1153.87880	0.51026	13805.00000	896.00000	7483.00000
1162.06855	0.31017	0.48958	14446.12872	862.12568	7512.68297	1160.06917	0.49333	14279.00000	862.00000	7481.00000
1168.26290	0.31667	0.48231	14959.02414	891.75197	7676.66031	1166.25954	0.48409	14800.00000	881.00000	7619.00000
1174.45726	0.32146	0.47703	15420.71473	898.79570	7825.98227	1172.44991	0.47898	15273.00000	903.00000	7786.00000
1180.65161	0.32703	0.47095	15876.41905	861.08105	7932.62293	1178.64028	0.47270	15728.00000	875.00000	7896.00000
1186.84597	0.33124	0.46640	16371.22020	852.06070	8090.18233	1184.83065	0.46786	16201.00000	846.00000	8030.00000
1193.04032	0.33533	0.46203	16894.18264	880.38932	8279.16941	1191.02102	0.46339	16730.00000	875.00000	8222.00000
1199.23468	0.33725	0.45999	17400.55626	883.09277	8481.03635	1197.21139	0.46015	17229.00000	882.00000	8404.00000
1205.42903	0.33517	0.46220	17922.85290	876.52702	8755.29686	1203.40176	0.46113	17758.00000	882.00000	8664.00000
1211.62339	0.33121	0.46644	18412.23826	867.41129	9050.90144	1209.59213	0.46497	18250.00000	866.00000	8949.00000
1217.81774	0.32672	0.47129	18946.64823	877.09601	9393.05970	1215.78250	0.46961	18763.00000	876.00000	9276.00000
1224.01210	0.32175	0.47671	19522.38589	879.59709	9766.75214	1221.97287	0.47489	19334.00000	877.00000	9642.00000
1230.20645	0.31686	0.48210	20046.82356	877.27220	10118.93806	1228.16324	0.48037	19884.00000	882.00000	10010.00000
1236.40081	0.31208	0.48744	20578.92550	894.33634	10489.44500	1234.35361	0.48562	20387.00000	878.00000	10352.00000
1242.59516	0.30736	0.49276	21116.97255	904.50586	10864.40114	1240.54398	0.49109	20962.00000	919.00000	10762.00000
1248.78952	0.30372	0.49691	21555.61107	852.78714	11140.25744	1246.73435	0.49569	21399.00000	858.00000	11040.00000
1254.98387	0.30105	0.49998	22112.97196	897.03001	11504.50248	1252.92472	0.49903	21917.00000	878.00000	11377.00000
1261.17823	0.29913	0.50219	22669.33634	902.45329	11833.62766	1259.11509	0.50160	22498.00000	915.00000	11741.00000
1267.37258	0.29881	0.50256	23144.86310	840.51764	12049.71807	1265.30546	0.50271	22985.00000	857.00000	11981.00000
1273.56694	0.30004	0.50114	23720.39347	860.92978	12316.76213	1271.49583	0.50170	23506.00000	841.00000	12212.00000
1279.76129	0.30253	0.49828	24372.77955	913.59084	12602.83863	1277.68620	0.49953	24166.00000	906.00000	12525.00000
1285.95565	0.30724	0.49290	24945.52650	893.87771	12748.82714	1283.87657	0.49495	24754.00000	903.00000	12708.00000
1292.15000	0.31384	0.48546	25532.41484	877.59600	12846.68868	1290.06694	0.48818	25332.00000	880.00000	12817.00000
1298.34435	0.32252	0.47586	26175.67024	884.75253	12919.56635	1296.25731	0.47938	25949.00000	881.00000	12898.00000
1304.53871	0.33398	0.46347	26805.92834	868.00311	12889.49566	1302.44769	0.46799	26610.00000	881.00000	12922.00000
1310.73306	0.34830	0.44843	27432.03993	867.23944	12779.73779	1308.63806	0.45374	27196.00000	853.00000	12806.00000
1316.92742	0.36523	0.43129	28161.82657	892.73544	12653.52381	1314.82843	0.43736	27925.00000	899.00000	12719.00000
1323.12177	0.38472	0.41237	28842.74169	862.95220	12400.85099	1321.01880	0.41890	28606.00000	864.00000	12485.00000
1329.31613	0.40553	0.39307	29519.54369	871.94640	12132.42252	1327.20917	0.39960	29300.00000	874.00000	12233.00000
1335.51048	0.42626	0.37475	30183.25265	863.66515	11851.18197	1333.39954	0.38079	29944.00000	862.00000	11936.00000
1341.70484	0.44555	0.35847	30926.51890	893.32929	11659.26882	1339.58991	0.36379	30673.00000	881.00000	11719.00000
1347.89919	0.46301	0.34434	31587.63481	894.88004	11463.71144	1345.78028	0.34893	31380.00000	904.00000	11538.00000
1354.09355	0.47901	0.33189	32227.78710	859.30420	11269.99613	1351.97065	0.33604	31988.00000	867.00000	11325.00000
1360.28790	0.49515	0.31978	32929.95072	867.11433	11120.28305	1358.16102	0.32400	32704.00000	861.00000	11178.00000
1366.48226	0.51422	0.30604	33569.06337	866.55753	10874.70503	1364.35139	0.31111	33341.00000	873.00000	10974.00000
1372.67661	0.53989	0.28848	34261.83351	843.87902	10484.08520	1370.54176	0.29506	34024.00000	848.00000	10637.00000
1378.87097	0.57570	0.26565	34838.67465	870.52277	9894.02694	1376.73213	0.27418	34668.00000	855.00000	10126.00000
1385.06532	0.62315	0.23815	35121.03064	877.10458	9032.43806	1382.92250	0.24799	35059.00000	888.00000	9362.00000
1391.25968	0.67817	0.20981	35289.43299	872.38486	8093.15455	1389.11287	0.21944	35214.00000	858.00000	8397.00000
1397.45403	0.73368	0.18464	35460.60298	899.47130	7281.14967	1395.30324	0.19284	35427.00000	906.00000	7563.00000
1403.64839	0.78320	0.16474	35666.10671	869.36576	6601.63598	1401.49361	0.17102	35545.00000	870.00000	6800.00000
1409.84274	0.82334	0.15020	36323.03255	883.09719	6206.06054	1407.68398	0.15472	36050.00000	883.00000	6324.00000
1416.03710	0.85378	0.14003	37284.68636	884.03189	5981.28250	1413.87435	0.14315	36926.00000	879.00000	6039.00000
1422.23145	0.87627	0.13296	38329.42739	892.53935	5870.29973	1420.06472	0.13519	37970.00000	895.00000	5907.00000
1428.42581	0.89286	0.12798	39434.74114	878.71439	5813.07183	1426.25509	0.12949	39022.00000	881.00000	5820.00000
1434.62016	0.90444	0.12461	40575.07439	880.06733	5826.53444	1432.44546	0.12568	40203.00000	880.00000	5822.00000
1440.81452	0.91270	0.12226	41493.68414	879.47622	5845.12903	1438.63583	0.12296	41184.00000	879.00000	5835.00000
1447.00887	0.91734	0.12096	42510.04768	905.41306	5938.07711	1444.82620	0.12132	42113.00000	891.00000	5892.00000
1453.20323	0.92014	0.12019	43543.72896	892.86717	6018.99166	1451.01657	0.12045	43229.00000	914.00000	6011.00000
1459.39758	0.92106	0.11993	44405.02794	864.61268	6086.54595	1457.20694	0.11989	44070.00000	855.00000	6036.00000
1465.59194	0.91856	0.12063	45481.34063	906.97918	6283.79248	1463.39731	0.12032	45094.00000	903.00000	6220.00000
1471.78629	0.91370	0.12198	46480.51435	890.87025	6452.10092	1469.58768	0.12140	46150.00000	894.00000	6388.00000
1477.98065	0.90609	0.12414	47320.91755	868.50781	6635.05140	1475.77805	0.12330	47029.00000	883.00000	6573.00000
1484.17500	0.89648	0.12692	48225.65661	857.63729	6869.51655	1481.96842	0.12585	47881.00000	849.00000	6768.00000
1490.36935	0.88570	0.13011	49092.30051	893.89890	7164.76519	1488.15879	0.12896	48824.00000	887.00000	7069.00000
1496.56371	0.87447	0.13352	49778.04514	887.35808	7415.12586	1494.34916	0.13224	49521.00000	891.00000	7322.00000
1502.75806	0.86247	0.13725	50469.48096	863.36996	7671.94037	1500.53953	0.13590	50241.00000	875.00000	7584.00000
1508.95242	0.85024	0.14118	51158.04064	897.54966	7993.14378	1506.72990	0.13973	50884.00000	867.00000	7856.00000
1515.14677	0.83815	0.14516	51878.91086	902.58342	8302.23822	1512.92027	0.14376	51650.00000	933.00000	8224.00000
1521.34113	0.82629	0.14918	52577.57434	850.45197	8567.11238	1519.11064	0.14768	52288.00000	838.00000	8436.00000
1527.53548	0.81431	0.15335	53324.26188	911.75147	8949.26008	1525.30101	0.15188	53098.00000	907.00000	8834.00000
1533.72984	0.80309	0.15737	53919.19306	885.74627	9231.56892	1531.49138	0.15590	53680.00000	890.00000	9120.00000
1539.92419	0.79200	0.16144	54593.00479	874.24673	9546.26647	1537.68175	0.15998	54367.00000	884.00000	9440.00000
1546.11855	0.78156	0.16536	55208.54831	866.87961	9853.05475	1543.87212	0.16395	54973.00000	860.00000	9732.00000
1552.31290	0.77145	0.16926	55811.51925	888.84465	10184.75524	1550.06249	0.16783	55614.00000	887.00000	10072.00000
1558.50726	0.76151	0.17318	56431.29012	888.46797	10507.46874	1556.25286	0.17176	56172.00000	885.00000	10381.00000
1564.70161	0.75218	0.17694	57011.94896	890.80855	10820.51765	1562.44323	0.17560	56858.00000	895.00000	10722.00000
1570.89597	0.74332	0.18058	57413.89650	869.93991	11080.99283	1568.63360	0.17924	57231.00000	876.00000	10977.00000
1577.09032	0.73461	0.18424	57979.03512	879.44141	11399.57170	1574.82397	0.18292	57786.00000	871.00000	11282.00000
1583.28468	0.72633	0.18779	58450.11400	894.72676	11703.13347	1581.01434	0.18649	58279.00000	894.00000	11596.00000
1589.47903	0.71847	0.19122	58825.25008	895.18773	11972.43888	1587.20471	0.18999	58712.00000	892.00000	11877.00000
1595.67339	0.71099	0.19454	59146.72764	885.70009	12220.00485	1593.39508	0.19331	59009.00000	896.00000	12130.00000
1601.86774	0.70368	0.19784	59574.82387	893.37146	12502.97439	1599.58545	0.19665	59419.00000	877.00000	12389.00000
1608.06210	0.69696	0.20093	59920.72690	909.46488	12766.47314	1605.77582	0.19982	59809.00000	920.00000	12687.00000
1614.25645	0.69046	0.20396	60220.95853	887.30010	12988.93604	1611.96619	0.20282	60102.00000	882.00000	12893.00000
1620.45081	0.68461	0.20672	60438.83040	897.12192	13205.80945	1618.15656	0.20580	60391.00000	905.00000	13147.00000
1626.64516	0.68004	0.20891	60579.30309	884.35356	13355.37352	1624.34693	0.20812	60502.00000	878.00000	13287.00000
1632.83952	0.67624	0.21075	60848.95373	899.57786	13533.73953	1630.53730	0.21014	60754.00000	903.00000	13480.00000
1639.03387	0.67297	0.21234	60928.35809	870.27700	13622.95433	1636.72767	0.21171	60938.00000	879.00000	13594.00000
1645.22823	0.66860	0.21449	60778.06969	873.98452	13722.82064	1642.91804	0.21360	60849.00000	868.00000	13680.00000
1651.42258	0.66320	0.21717	59777.88214	914.49031	13697.66219	1649.10841	0.21614	60357.00000	896.00000	13748.00000
1657.61694	0.65863	0.21947	57642.70006	920.63108	13369.38298	1655.29878	0.21874	58452.00000	931.00000	13513.00000
1663.81129	0.65548	0.22106	56689.89176	898.36344	13232.22929	1661.48915	0.22048	56762.00000	897.00000	13214.00000
1670.00565	0.65267	0.22250	55553.85124	917.06266	13073.40475	1667.67952	0.22200	56404.00000	914.00000	13233.00000
1676.20000	0.65107	0.22332	52318.47966	879.24303	12367.03739	1673.86989	0.22312	53497.00000	901.00000	12636.00000
0.00000	0.00000	0.00000	0.00000	0.00000	0.00000	1680.06026	0.22352	50136.00000	860.00000	11874.00000
0.00000	0.00000	0.00000	0.00000	0.00000	0.00000	1686.25063	0.22379	46019.00000	923.00000	11015.00000
0.00000	0.00000	0.00000	0.00000	0.00000	0.00000	1692.44100	0.22379	46019.00000	923.00000	11015.00000
