'File 橙子_5_2016一月28_1118.xls
'Part ID 橙子_5
'Scan Created 2016/1/28 11:18:32
'Instrument S1-00205
'Version 1.5.7
'Integration Time 10100 s
'Number of Scans 50
'Units Absorbance
'Thermistor 48.07
Wavelength	Absorbance	Normalized	100%	dark	Raw 1	Native Wvl	Native Norm	Native 100%	Native dark	Native 1
908.10000	0.40798	0.39086	3595.82598	881.87120	1941.15871	906.26400	0.37803	3684.00000	880.00000	1940.00000
914.29435	0.36236	0.43415	3338.07467	866.26472	1939.84290	912.45437	0.42128	3404.00000	876.00000	1941.00000
920.48871	0.31992	0.47872	3265.72768	878.51909	2021.32352	918.64474	0.46516	3257.00000	860.00000	1975.00000
926.68306	0.28210	0.52228	3334.01990	918.74175	2180.05734	924.83511	0.51000	3324.00000	924.00000	2148.00000
932.87742	0.25019	0.56210	3389.36197	864.93184	2284.08566	931.02548	0.55000	3355.00000	875.00000	2239.00000
939.07177	0.22351	0.59771	3619.59224	884.95115	2519.44809	937.21585	0.58859	3537.00000	873.00000	2441.00000
945.26613	0.21008	0.61648	3856.44440	889.93616	2718.67363	943.40622	0.61268	3802.00000	900.00000	2678.00000
951.46048	0.20920	0.61773	4005.12223	859.91735	2802.85934	949.59659	0.61919	3955.00000	859.00000	2776.00000
957.65484	0.21798	0.60536	4215.51392	893.73656	2904.44237	955.78696	0.60987	4148.00000	885.00000	2875.00000
963.84919	0.22554	0.59492	4374.23623	878.43417	2958.31537	961.97733	0.59658	4344.00000	891.00000	2951.00000
970.04355	0.22651	0.59359	4523.41127	896.06510	3049.14675	968.16770	0.59408	4453.00000	871.00000	2999.00000
976.23790	0.22829	0.59116	4726.50938	925.04592	3172.30392	974.35807	0.59178	4693.00000	945.00000	3163.00000
982.43226	0.22712	0.59277	4835.26800	856.06452	3214.87586	980.54844	0.59149	4778.00000	854.00000	3175.00000
988.62661	0.22312	0.59825	5079.18703	905.14928	3402.15429	986.73881	0.59679	5013.00000	901.00000	3355.00000
994.82097	0.21992	0.60267	5288.13901	870.37131	3532.98800	992.92918	0.60115	5216.00000	881.00000	3487.00000
1001.01532	0.21660	0.60730	5547.24444	876.96250	3712.99086	999.11955	0.60613	5470.00000	867.00000	3657.00000
1007.20968	0.21177	0.61408	5821.73207	889.84005	3918.72983	1005.30992	0.61101	5729.00000	896.00000	3849.00000
1013.40403	0.20046	0.63029	6108.36987	875.33513	4173.40591	1011.50029	0.62449	6031.00000	870.00000	4093.00000
1019.59839	0.18748	0.64942	6349.51155	919.49996	4446.00684	1017.69066	0.64391	6269.00000	908.00000	4360.00000
1025.79274	0.17751	0.66449	6610.09178	908.88037	4697.18555	1023.88103	0.66020	6536.00000	921.00000	4628.00000
1031.98710	0.16861	0.67825	6863.27600	885.10537	4939.85885	1030.07140	0.67385	6776.00000	883.00000	4854.00000
1038.18145	0.15967	0.69236	7137.95533	879.30949	5212.50703	1036.26177	0.68817	7062.00000	892.00000	5138.00000
1044.37581	0.15245	0.70397	7415.45215	852.78191	5472.68681	1042.45214	0.70070	7313.00000	848.00000	5378.00000
1050.57016	0.14697	0.71290	7763.75520	889.74850	5790.22539	1048.64251	0.71032	7664.00000	884.00000	5700.00000
1056.76452	0.14253	0.72024	8043.98752	873.54577	6037.99164	1054.83288	0.71810	7958.00000	881.00000	5963.00000
1062.95887	0.13956	0.72518	8346.47029	875.55305	6293.27928	1061.02325	0.72404	8246.00000	868.00000	6210.00000
1069.15323	0.13866	0.72667	8651.05608	883.28349	6527.90135	1067.21362	0.72648	8564.00000	890.00000	6465.00000
1075.34758	0.13869	0.72662	8931.01237	859.29405	6724.42361	1073.40399	0.72668	8836.00000	860.00000	6656.00000
1081.54194	0.13976	0.72483	9243.78719	871.40916	6939.92842	1079.59436	0.72581	9149.00000	870.00000	6879.00000
1087.73629	0.14286	0.71968	9580.78777	901.76500	7147.86914	1085.78473	0.72153	9462.00000	883.00000	7073.00000
1093.93065	0.14710	0.71269	9940.76391	922.65990	7349.78454	1091.97510	0.71509	9841.00000	933.00000	7303.00000
1100.12500	0.15293	0.70319	10254.38783	869.25749	7468.66576	1098.16547	0.70656	10144.00000	878.00000	7425.00000
1106.31935	0.15993	0.69195	10641.04469	875.00467	7632.65166	1104.35584	0.69542	10519.00000	873.00000	7581.00000
1112.51371	0.16695	0.68084	11015.80766	872.41348	7778.42708	1110.54621	0.68453	10897.00000	874.00000	7735.00000
1118.70806	0.17526	0.66794	11401.60672	872.77123	7905.45568	1116.73658	0.67227	11276.00000	871.00000	7866.00000
1124.90242	0.18670	0.65059	11814.30888	885.70510	7995.84609	1122.92695	0.65701	11680.00000	881.00000	7976.00000
1131.09677	0.20680	0.62116	12236.17715	886.26842	7936.01844	1129.11732	0.63239	12103.00000	890.00000	7981.00000
1137.29113	0.23833	0.57765	12606.57558	854.95675	7643.69393	1135.30769	0.59255	12498.00000	867.00000	7759.00000
1143.48548	0.27511	0.53075	12995.31207	851.62722	7296.44681	1141.49806	0.54539	12851.00000	843.00000	7392.00000
1149.67984	0.30641	0.49384	13491.13514	894.93569	7115.85791	1147.68843	0.50381	13335.00000	884.00000	7157.00000
1155.87419	0.32711	0.47086	13953.07917	885.15852	7038.05328	1153.87880	0.47742	13805.00000	896.00000	7059.00000
1162.06855	0.34152	0.45549	14446.12872	862.12568	7049.53429	1160.06917	0.45949	14279.00000	862.00000	7027.00000
1168.26290	0.34909	0.44762	14959.02414	891.75197	7188.64969	1166.25954	0.44960	14800.00000	881.00000	7139.00000
1174.45726	0.35504	0.44153	15420.71473	898.79570	7310.51618	1172.44991	0.44377	15273.00000	903.00000	7280.00000
1180.65161	0.36206	0.43445	15876.41905	861.08105	7384.53291	1178.64028	0.43654	15728.00000	875.00000	7359.00000
1186.84597	0.36760	0.42894	16371.22020	852.06070	7508.87126	1184.83065	0.43067	16201.00000	846.00000	7459.00000
1193.04032	0.37300	0.42365	16894.18264	880.38932	7664.50566	1191.02102	0.42535	16730.00000	875.00000	7619.00000
1199.23468	0.37591	0.42082	17400.55626	883.09277	7833.96825	1197.21139	0.42112	17229.00000	882.00000	7766.00000
1205.42903	0.37368	0.42298	17922.85290	876.52702	8086.74334	1203.40176	0.42190	17758.00000	882.00000	8002.00000
1211.62339	0.36912	0.42745	18412.23826	867.41129	8366.85968	1209.59213	0.42585	18250.00000	866.00000	8269.00000
1217.81774	0.36381	0.43270	18946.64823	877.09601	8695.79922	1215.78250	0.43093	18763.00000	876.00000	8584.00000
1224.01210	0.35811	0.43842	19522.38589	879.59709	9052.96516	1221.97287	0.43647	19334.00000	877.00000	8933.00000
1230.20645	0.35227	0.44435	20046.82356	877.27220	9395.24933	1228.16324	0.44243	19884.00000	882.00000	9289.00000
1236.40081	0.34667	0.45012	20578.92550	894.33634	9754.84849	1234.35361	0.44820	20387.00000	878.00000	9622.00000
1242.59516	0.34133	0.45569	21116.97255	904.50586	10115.01921	1240.54398	0.45392	20962.00000	919.00000	10017.00000
1248.78952	0.33709	0.46016	21555.61107	852.78714	10379.42351	1246.73435	0.45884	21399.00000	858.00000	10283.00000
1254.98387	0.33392	0.46353	22112.97196	897.03001	10731.24284	1252.92472	0.46247	21917.00000	878.00000	10608.00000
1261.17823	0.33165	0.46596	22669.33634	902.45329	11044.88691	1259.11509	0.46532	22498.00000	915.00000	10958.00000
1267.37258	0.33106	0.46660	23144.86310	840.51764	11247.61562	1265.30546	0.46660	22985.00000	857.00000	11182.00000
1273.56694	0.33202	0.46557	23720.39347	860.92978	11503.61411	1271.49583	0.46605	23506.00000	841.00000	11404.00000
1279.76129	0.33459	0.46282	24372.77955	913.59084	11770.89228	1277.68620	0.46402	24166.00000	906.00000	11699.00000
1285.95565	0.33923	0.45790	24945.52650	893.87771	11907.08811	1283.87657	0.45973	24754.00000	903.00000	11868.00000
1292.15000	0.34588	0.45094	25532.41484	877.59600	11995.42592	1290.06694	0.45358	25332.00000	880.00000	11971.00000
1298.34435	0.35497	0.44160	26175.67024	884.75253	12053.19940	1296.25731	0.44495	25949.00000	881.00000	12035.00000
1304.53871	0.36671	0.42983	26805.92834	868.00311	12016.90805	1302.44769	0.43418	26610.00000	881.00000	12052.00000
1310.73306	0.38171	0.41523	27432.03993	867.23944	11897.67156	1308.63806	0.42038	27196.00000	853.00000	11927.00000
1316.92742	0.39937	0.39869	28161.82657	892.73544	11764.50077	1314.82843	0.40454	27925.00000	899.00000	11832.00000
1323.12177	0.41980	0.38036	28842.74169	862.95220	11505.34173	1321.01880	0.38671	28606.00000	864.00000	11592.00000
1329.31613	0.44177	0.36160	29519.54369	871.94640	11231.08512	1327.20917	0.36794	29300.00000	874.00000	11333.00000
1335.51048	0.46355	0.34391	30183.25265	863.66515	10947.02542	1333.39954	0.34974	29944.00000	862.00000	11033.00000
1341.70484	0.48383	0.32822	30926.51890	893.32929	10750.80117	1339.58991	0.33334	30673.00000	881.00000	10812.00000
1347.89919	0.50211	0.31470	31587.63481	894.88004	10553.99725	1345.78028	0.31907	31380.00000	904.00000	10628.00000
1354.09355	0.51883	0.30281	32227.78710	859.30420	10357.85060	1351.97065	0.30680	31988.00000	867.00000	10415.00000
1360.28790	0.53599	0.29108	32929.95072	867.11433	10200.04664	1358.16102	0.29517	32704.00000	861.00000	10260.00000
1366.48226	0.55606	0.27793	33569.06337	866.55753	9955.56344	1364.35139	0.28274	33341.00000	873.00000	10053.00000
1372.67661	0.58266	0.26142	34261.83351	843.87902	9579.87781	1370.54176	0.26760	34024.00000	848.00000	9726.00000
1378.87097	0.61977	0.24001	34838.67465	870.52277	9023.22267	1376.73213	0.24801	34668.00000	855.00000	9241.00000
1385.06532	0.66895	0.21431	35121.03064	877.10458	8216.14013	1382.92250	0.22349	35059.00000	888.00000	8525.00000
1391.25968	0.72602	0.18792	35289.43299	872.38486	7339.88612	1389.11287	0.19688	35214.00000	858.00000	7622.00000
1397.45403	0.78332	0.16470	35460.60298	899.47130	6591.85031	1395.30324	0.17221	35427.00000	906.00000	6851.00000
1403.64839	0.83406	0.14653	35666.10671	869.36576	5968.09489	1401.49361	0.15227	35545.00000	870.00000	6150.00000
1409.84274	0.87548	0.13320	36323.03255	883.09719	5603.77508	1407.68398	0.13734	36050.00000	883.00000	5713.00000
1416.03710	0.90694	0.12390	37284.68636	884.03189	5393.99140	1413.87435	0.12675	36926.00000	879.00000	5448.00000
1422.23145	0.93046	0.11737	38329.42739	892.53935	5286.40123	1420.06472	0.11943	37970.00000	895.00000	5323.00000
1428.42581	0.94822	0.11266	39434.74114	878.71439	5222.55477	1426.25509	0.11410	39022.00000	881.00000	5233.00000
1434.62016	0.96073	0.10946	40575.07439	880.06733	5225.24882	1432.44546	0.11047	40203.00000	880.00000	5224.00000
1440.81452	0.96972	0.10722	41493.68414	879.47622	5234.18999	1438.63583	0.10790	41184.00000	879.00000	5228.00000
1447.00887	0.97500	0.10592	42510.04768	905.41306	5312.39869	1444.82620	0.10628	42113.00000	891.00000	5272.00000
1453.20323	0.97839	0.10510	43543.72896	892.86717	5375.50284	1451.01657	0.10540	43229.00000	914.00000	5374.00000
1459.39758	0.98006	0.10470	44405.02794	864.61268	5423.23457	1457.20694	0.10471	44070.00000	855.00000	5380.00000
1465.59194	0.97793	0.10521	45481.34063	906.97918	5596.73444	1463.39731	0.10498	45094.00000	903.00000	5542.00000
1471.78629	0.97372	0.10624	46480.51435	890.87025	5734.19516	1469.58768	0.10580	46150.00000	894.00000	5682.00000
1477.98065	0.96672	0.10796	47320.91755	868.50781	5883.71146	1475.77805	0.10727	47029.00000	883.00000	5833.00000
1484.17500	0.95744	0.11030	48225.65661	857.63729	6082.23382	1481.96842	0.10941	47881.00000	849.00000	5995.00000
1490.36935	0.94713	0.11295	49092.30051	893.89890	6337.64021	1488.15879	0.11198	48824.00000	887.00000	6255.00000
1496.56371	0.93615	0.11584	49778.04514	887.35808	6550.83091	1494.34916	0.11476	49521.00000	891.00000	6472.00000
1502.75806	0.92460	0.11896	50469.48096	863.36996	6764.45396	1500.53953	0.11783	50241.00000	875.00000	6692.00000
1508.95242	0.91270	0.12226	51158.04064	897.54966	7042.65591	1506.72990	0.12104	50884.00000	867.00000	6921.00000
1515.14677	0.90075	0.12568	51878.91086	902.58342	7309.04711	1512.92027	0.12448	51650.00000	933.00000	7246.00000
1521.34113	0.88901	0.12912	52577.57434	850.45197	7529.42718	1519.11064	0.12783	52288.00000	838.00000	7415.00000
1527.53548	0.87710	0.13271	53324.26188	911.75147	7867.19442	1525.30101	0.13144	53098.00000	907.00000	7767.00000
1533.72984	0.86589	0.13618	53919.19306	885.74627	8107.83870	1531.49138	0.13491	53680.00000	890.00000	8012.00000
1539.92419	0.85493	0.13966	54593.00479	874.24673	8376.57594	1537.68175	0.13842	54367.00000	884.00000	8287.00000
1546.11855	0.84454	0.14304	55208.54831	866.87961	8639.98066	1543.87212	0.14181	54973.00000	860.00000	8534.00000
1552.31290	0.83427	0.14646	55811.51925	888.84465	8932.99404	1550.06249	0.14521	55614.00000	887.00000	8834.00000
1558.50726	0.82420	0.14990	56431.29012	888.46797	9214.53536	1556.25286	0.14866	56172.00000	885.00000	9104.00000
1564.70161	0.81492	0.15314	57011.94896	890.80855	9484.82494	1562.44323	0.15199	56858.00000	895.00000	9401.00000
1570.89597	0.80610	0.15628	57413.89650	869.93991	9706.66208	1568.63360	0.15511	57231.00000	876.00000	9617.00000
1577.09032	0.79709	0.15955	57979.03512	879.44141	9989.81471	1574.82397	0.15836	57786.00000	871.00000	9884.00000
1583.28468	0.78859	0.16271	58450.11400	894.72676	10259.48246	1581.01434	0.16158	58279.00000	894.00000	10166.00000
1589.47903	0.78066	0.16571	58825.25008	895.18773	10494.55728	1587.20471	0.16461	58712.00000	892.00000	10410.00000
1595.67339	0.77292	0.16869	59146.72764	885.70009	10713.54344	1593.39508	0.16759	59009.00000	896.00000	10635.00000
1601.86774	0.76539	0.17164	59574.82387	893.37146	10965.22728	1599.58545	0.17056	59419.00000	877.00000	10862.00000
1608.06210	0.75846	0.17440	59920.72690	909.46488	11200.89224	1605.77582	0.17341	59809.00000	920.00000	11132.00000
1614.25645	0.75192	0.17704	60220.95853	887.30010	11392.02348	1611.96619	0.17606	60102.00000	882.00000	11308.00000
1620.45081	0.74602	0.17947	60438.83040	897.12192	11582.80603	1618.15656	0.17865	60391.00000	905.00000	11532.00000
1626.64516	0.74173	0.18125	60579.30309	884.35356	11703.92698	1624.34693	0.18065	60502.00000	878.00000	11649.00000
1632.83952	0.73890	0.18243	60848.95373	899.57786	11836.23315	1630.53730	0.18207	60754.00000	903.00000	11800.00000
1639.03387	0.73632	0.18352	60928.35809	870.27700	11892.00715	1636.72767	0.18304	60938.00000	879.00000	11872.00000
1645.22823	0.73185	0.18542	60778.06969	873.98452	11981.50907	1642.91804	0.18461	60849.00000	868.00000	11941.00000
1651.42258	0.72580	0.18802	59777.88214	914.49031	11981.70555	1649.10841	0.18700	60357.00000	896.00000	12015.00000
1657.61694	0.72039	0.19037	57642.70006	920.63108	11719.05624	1655.29878	0.18962	58452.00000	931.00000	11838.00000
1663.81129	0.71672	0.19199	56689.89176	898.36344	11610.07394	1661.48915	0.19141	56762.00000	897.00000	11590.00000
1670.00565	0.71370	0.19333	55553.85124	917.06266	11479.57229	1667.67952	0.19288	56404.00000	914.00000	11617.00000
1676.20000	0.71203	0.19407	52318.47966	879.24303	10862.47483	1673.86989	0.19387	53497.00000	901.00000	11098.00000
0.00000	0.00000	0.00000	0.00000	0.00000	0.00000	1680.06026	0.19427	50136.00000	860.00000	10433.00000
0.00000	0.00000	0.00000	0.00000	0.00000	0.00000	1686.25063	0.19447	46019.00000	923.00000	9693.00000
0.00000	0.00000	0.00000	0.00000	0.00000	0.00000	1692.44100	0.19447	46019.00000	923.00000	9693.00000
