'File 橙子_4_2016一月28_1118.xls
'Part ID 橙子_4
'Scan Created 2016/1/28 11:18:24
'Instrument S1-00205
'Version 1.5.7
'Integration Time 10100 s
'Number of Scans 50
'Units Absorbance
'Thermistor 48.07
Wavelength	Absorbance	Normalized	100%	dark	Raw 1	Native Wvl	Native Norm	Native 100%	Native dark	Native 1
908.10000	0.40402	0.39443	3595.82598	881.87120	1950.75031	906.26400	0.38053	3684.00000	880.00000	1947.00000
914.29435	0.35479	0.44178	3338.07467	866.26472	1958.72721	912.45437	0.42761	3404.00000	876.00000	1957.00000
920.48871	0.30983	0.48997	3265.72768	878.51909	2048.16445	918.64474	0.47559	3257.00000	860.00000	2000.00000
926.68306	0.27071	0.53615	3334.01990	918.74175	2213.57344	924.83511	0.52292	3324.00000	924.00000	2179.00000
932.87742	0.23745	0.57883	3389.36197	864.93184	2326.28353	931.02548	0.56613	3355.00000	875.00000	2279.00000
939.07177	0.21053	0.61584	3619.59224	884.95115	2569.07058	937.21585	0.60623	3537.00000	873.00000	2488.00000
945.26613	0.19651	0.63605	3856.44440	889.93616	2776.72661	943.40622	0.63198	3802.00000	900.00000	2734.00000
951.46048	0.19611	0.63664	4005.12223	859.91735	2862.32642	949.59659	0.63857	3955.00000	859.00000	2836.00000
957.65484	0.20599	0.62231	4215.51392	893.73656	2960.73397	955.78696	0.62734	4148.00000	885.00000	2932.00000
963.84919	0.21440	0.61038	4374.23623	878.43417	3012.37358	961.97733	0.61251	4344.00000	891.00000	3006.00000
970.04355	0.21619	0.60787	4523.41127	896.06510	3100.95184	968.16770	0.60860	4453.00000	871.00000	3051.00000
976.23790	0.21799	0.60535	4726.50938	925.04592	3226.25782	974.35807	0.60592	4693.00000	945.00000	3216.00000
982.43226	0.21684	0.60696	4835.26800	856.06452	3271.34105	980.54844	0.60576	4778.00000	854.00000	3231.00000
988.62661	0.21326	0.61199	5079.18703	905.14928	3459.51913	986.73881	0.61065	5013.00000	901.00000	3412.00000
994.82097	0.21021	0.61629	5288.13901	870.37131	3593.14582	992.92918	0.61476	5216.00000	881.00000	3546.00000
1001.01532	0.20657	0.62148	5547.24444	876.96250	3779.25699	999.11955	0.62003	5470.00000	867.00000	3721.00000
1007.20968	0.20122	0.62919	5821.73207	889.84005	3993.24024	1005.30992	0.62591	5729.00000	896.00000	3921.00000
1013.40403	0.18945	0.64647	6108.36987	875.33513	4258.09285	1011.50029	0.64019	6031.00000	870.00000	4174.00000
1019.59839	0.17583	0.66707	6349.51155	919.49996	4541.79994	1017.69066	0.66126	6269.00000	908.00000	4453.00000
1025.79274	0.16554	0.68306	6610.09178	908.88037	4803.12159	1023.88103	0.67836	6536.00000	921.00000	4730.00000
1031.98710	0.15594	0.69833	6863.27600	885.10537	5059.85706	1030.07140	0.69353	6776.00000	883.00000	4970.00000
1038.18145	0.14667	0.71340	7137.95533	879.30949	5344.19981	1036.26177	0.70891	7062.00000	892.00000	5266.00000
1044.37581	0.13916	0.72584	7415.45215	852.78191	5616.21471	1042.45214	0.72235	7313.00000	848.00000	5518.00000
1050.57016	0.13350	0.73536	7763.75520	889.74850	5944.57221	1048.64251	0.73260	7664.00000	884.00000	5851.00000
1056.76452	0.12900	0.74302	8043.98752	873.54577	6201.34038	1054.83288	0.74085	7958.00000	881.00000	6124.00000
1062.95887	0.12610	0.74799	8346.47029	875.55305	6463.72561	1061.02325	0.74681	8246.00000	868.00000	6378.00000
1069.15323	0.12500	0.74989	8651.05608	883.28349	6708.30392	1067.21362	0.74954	8564.00000	890.00000	6642.00000
1075.34758	0.12509	0.74975	8931.01237	859.29405	6911.03537	1073.40399	0.75000	8836.00000	860.00000	6842.00000
1081.54194	0.12648	0.74735	9243.78719	871.40916	7128.53171	1079.59436	0.74840	9149.00000	870.00000	7066.00000
1087.73629	0.12959	0.74200	9580.78777	901.76500	7341.59347	1085.78473	0.74403	9462.00000	883.00000	7266.00000
1093.93065	0.13428	0.73404	9940.76391	922.65990	7542.35279	1091.97510	0.73675	9841.00000	933.00000	7496.00000
1100.12500	0.14034	0.72386	10254.38783	869.25749	7662.76512	1098.16547	0.72739	10144.00000	878.00000	7618.00000
1106.31935	0.14754	0.71197	10641.04469	875.00467	7828.18187	1104.35584	0.71574	10519.00000	873.00000	7777.00000
1112.51371	0.15489	0.70001	11015.80766	872.41348	7972.93573	1110.54621	0.70388	10897.00000	874.00000	7929.00000
1118.70806	0.16337	0.68649	11401.60672	872.77123	8100.68447	1116.73658	0.69111	11276.00000	871.00000	8062.00000
1124.90242	0.17560	0.66742	11814.30888	885.70510	8179.79659	1122.92695	0.67451	11680.00000	881.00000	8165.00000
1131.09677	0.19690	0.63548	12236.17715	886.26842	8098.54735	1129.11732	0.64755	12103.00000	890.00000	8151.00000
1137.29113	0.23002	0.58882	12606.57558	854.95675	7774.86918	1135.30769	0.60485	12498.00000	867.00000	7902.00000
1143.48548	0.26909	0.53815	12995.31207	851.62722	7386.29488	1141.49806	0.55396	12851.00000	843.00000	7495.00000
1149.67984	0.30257	0.49823	13491.13514	894.93569	7171.12111	1147.68843	0.50904	13335.00000	884.00000	7222.00000
1155.87419	0.32479	0.47338	13953.07917	885.15852	7071.02728	1153.87880	0.48044	13805.00000	896.00000	7098.00000
1162.06855	0.34034	0.45673	14446.12872	862.12568	7066.37229	1160.06917	0.46113	14279.00000	862.00000	7049.00000
1168.26290	0.34885	0.44787	14959.02414	891.75197	7192.11696	1166.25954	0.45010	14800.00000	881.00000	7146.00000
1174.45726	0.35517	0.44140	15420.71473	898.79570	7308.61946	1172.44991	0.44370	15273.00000	903.00000	7279.00000
1180.65161	0.36248	0.43403	15876.41905	861.08105	7378.18862	1178.64028	0.43628	15728.00000	875.00000	7355.00000
1186.84597	0.36849	0.42806	16371.22020	852.06070	7495.21590	1184.83065	0.42989	16201.00000	846.00000	7447.00000
1193.04032	0.37383	0.42284	16894.18264	880.38932	7651.58591	1191.02102	0.42447	16730.00000	875.00000	7605.00000
1199.23468	0.37662	0.42012	17400.55626	883.09277	7822.49595	1197.21139	0.42044	17229.00000	882.00000	7755.00000
1205.42903	0.37458	0.42210	17922.85290	876.52702	8071.86996	1203.40176	0.42107	17758.00000	882.00000	7988.00000
1211.62339	0.37008	0.42650	18412.23826	867.41129	8350.20024	1209.59213	0.42493	18250.00000	866.00000	8253.00000
1217.81774	0.36484	0.43168	18946.64823	877.09601	8677.40888	1215.78250	0.42992	18763.00000	876.00000	8566.00000
1224.01210	0.35914	0.43738	19522.38589	879.59709	9033.51623	1221.97287	0.43544	19334.00000	877.00000	8914.00000
1230.20645	0.35328	0.44332	20046.82356	877.27220	9375.49585	1228.16324	0.44137	19884.00000	882.00000	9269.00000
1236.40081	0.34772	0.44904	20578.92550	894.33634	9733.50203	1234.35361	0.44718	20387.00000	878.00000	9602.00000
1242.59516	0.34235	0.45463	21116.97255	904.50586	10093.63570	1240.54398	0.45278	20962.00000	919.00000	9994.00000
1248.78952	0.33785	0.45935	21555.61107	852.78714	10362.67075	1246.73435	0.45801	21399.00000	858.00000	10266.00000
1254.98387	0.33470	0.46270	22112.97196	897.03001	10713.70254	1252.92472	0.46162	21917.00000	878.00000	10590.00000
1261.17823	0.33225	0.46531	22669.33634	902.45329	11030.90589	1259.11509	0.46462	22498.00000	915.00000	10943.00000
1267.37258	0.33170	0.46591	23144.86310	840.51764	11232.29703	1265.30546	0.46597	22985.00000	857.00000	11168.00000
1273.56694	0.33276	0.46478	23720.39347	860.92978	11485.52575	1271.49583	0.46525	23506.00000	841.00000	11386.00000
1279.76129	0.33537	0.46199	24372.77955	913.59084	11751.40468	1277.68620	0.46324	24166.00000	906.00000	11681.00000
1285.95565	0.34053	0.45653	24945.52650	893.87771	11874.06722	1283.87657	0.45860	24754.00000	903.00000	11841.00000
1292.15000	0.34771	0.44904	25532.41484	877.59600	11948.73767	1290.06694	0.45178	25332.00000	880.00000	11927.00000
1298.34435	0.35724	0.43929	26175.67024	884.75253	11994.83804	1296.25731	0.44288	25949.00000	881.00000	11983.00000
1304.53871	0.37004	0.42654	26805.92834	868.00311	11931.70477	1302.44769	0.43123	26610.00000	881.00000	11976.00000
1310.73306	0.38616	0.41099	27432.03993	867.23944	11785.17261	1308.63806	0.41647	27196.00000	853.00000	11824.00000
1316.92742	0.40509	0.39347	28161.82657	892.73544	11622.15379	1314.82843	0.39965	27925.00000	899.00000	11700.00000
1323.12177	0.42695	0.37415	28842.74169	862.95220	11331.54228	1321.01880	0.38083	28606.00000	864.00000	11429.00000
1329.31613	0.45049	0.35441	29519.54369	871.94640	11025.11535	1327.20917	0.36108	29300.00000	874.00000	11138.00000
1335.51048	0.47391	0.33581	30183.25265	863.66515	10709.43425	1333.39954	0.34193	29944.00000	862.00000	10806.00000
1341.70484	0.49573	0.31935	30926.51890	893.32929	10484.52919	1339.58991	0.32472	30673.00000	881.00000	10555.00000
1347.89919	0.51529	0.30529	31587.63481	894.88004	10265.14250	1345.78028	0.30982	31380.00000	904.00000	10346.00000
1354.09355	0.53301	0.29308	32227.78710	859.30420	10052.69319	1351.97065	0.29716	31988.00000	867.00000	10115.00000
1360.28790	0.55118	0.28108	32929.95072	867.11433	9879.43841	1358.16102	0.28527	32704.00000	861.00000	9945.00000
1366.48226	0.57252	0.26759	33569.06337	866.55753	9617.45970	1364.35139	0.27251	33341.00000	873.00000	9721.00000
1372.67661	0.60089	0.25068	34261.83351	843.87902	9220.88686	1370.54176	0.25702	34024.00000	848.00000	9375.00000
1378.87097	0.64066	0.22874	34838.67465	870.52277	8640.38525	1376.73213	0.23692	34668.00000	855.00000	8866.00000
1385.06532	0.69327	0.20264	35121.03064	877.10458	7816.56155	1382.92250	0.21193	35059.00000	888.00000	8130.00000
1391.25968	0.75421	0.17611	35289.43299	872.38486	6933.40757	1389.11287	0.18509	35214.00000	858.00000	7217.00000
1397.45403	0.81547	0.15294	35460.60298	899.47130	6185.71279	1395.30324	0.16042	35427.00000	906.00000	6444.00000
1403.64839	0.86939	0.13509	35666.10671	869.36576	5569.75290	1401.49361	0.14068	35545.00000	870.00000	5748.00000
1409.84274	0.91274	0.12225	36323.03255	883.09719	5215.70784	1407.68398	0.12623	36050.00000	883.00000	5322.00000
1416.03710	0.94563	0.11334	37284.68636	884.03189	5009.55658	1413.87435	0.11607	36926.00000	879.00000	5063.00000
1422.23145	0.97012	0.10712	38329.42739	892.53935	4902.92341	1420.06472	0.10908	37970.00000	895.00000	4939.00000
1428.42581	0.98839	0.10271	39434.74114	878.71439	4838.78384	1426.25509	0.10406	39022.00000	881.00000	4850.00000
1434.62016	1.00150	0.09966	40575.07439	880.06733	4835.93396	1432.44546	0.10063	40203.00000	880.00000	4837.00000
1440.81452	1.01091	0.09752	41493.68414	879.47622	4840.11462	1438.63583	0.09815	41184.00000	879.00000	4835.00000
1447.00887	1.01639	0.09630	42510.04768	905.41306	4911.80419	1444.82620	0.09665	42113.00000	891.00000	4875.00000
1453.20323	1.02010	0.09548	43543.72896	892.86717	4965.00297	1451.01657	0.09576	43229.00000	914.00000	4966.00000
1459.39758	1.02172	0.09512	44405.02794	864.61268	5006.24558	1457.20694	0.09513	44070.00000	855.00000	4966.00000
1465.59194	1.01974	0.09556	45481.34063	906.97918	5166.30179	1463.39731	0.09536	45094.00000	903.00000	5117.00000
1471.78629	1.01549	0.09650	46480.51435	890.87025	5290.06503	1469.58768	0.09608	46150.00000	894.00000	5242.00000
1477.98065	1.00832	0.09810	47320.91755	868.50781	5425.58132	1475.77805	0.09747	47029.00000	883.00000	5381.00000
1484.17500	0.99908	0.10021	48225.65661	857.63729	5604.49117	1481.96842	0.09940	47881.00000	849.00000	5524.00000
1490.36935	0.98854	0.10267	49092.30051	893.89890	5842.55697	1488.15879	0.10178	48824.00000	887.00000	5766.00000
1496.56371	0.97730	0.10536	49778.04514	887.35808	6038.79482	1494.34916	0.10436	49521.00000	891.00000	5966.00000
1502.75806	0.96521	0.10834	50469.48096	863.36996	6237.69746	1500.53953	0.10726	50241.00000	875.00000	6170.00000
1508.95242	0.95286	0.11147	51158.04064	897.54966	6499.90963	1506.72990	0.11032	50884.00000	867.00000	6385.00000
1515.14677	0.94049	0.11469	51878.91086	902.58342	6748.77391	1512.92027	0.11353	51650.00000	933.00000	6691.00000
1521.34113	0.92813	0.11800	52577.57434	850.45197	6954.18128	1519.11064	0.11677	52288.00000	838.00000	6846.00000
1527.53548	0.91577	0.12140	53324.26188	911.75147	7274.67669	1525.30101	0.12019	53098.00000	907.00000	7180.00000
1533.72984	0.90395	0.12475	53919.19306	885.74627	7501.88166	1531.49138	0.12353	53680.00000	890.00000	7411.00000
1539.92419	0.89239	0.12812	54593.00479	874.24673	7756.54729	1537.68175	0.12692	54367.00000	884.00000	7672.00000
1546.11855	0.88151	0.13137	55208.54831	866.87961	8005.62306	1543.87212	0.13019	54973.00000	860.00000	7905.00000
1552.31290	0.87067	0.13469	55811.51925	888.84465	8286.16406	1550.06249	0.13346	55614.00000	887.00000	8191.00000
1558.50726	0.85990	0.13807	56431.29012	888.46797	8557.33763	1556.25286	0.13685	56172.00000	885.00000	8451.00000
1564.70161	0.85012	0.14122	57011.94896	890.80855	8815.85558	1562.44323	0.14011	56858.00000	895.00000	8736.00000
1570.89597	0.84065	0.14433	57413.89650	869.93991	9030.95630	1568.63360	0.14315	57231.00000	876.00000	8943.00000
1577.09032	0.83104	0.14756	57979.03512	879.44141	9304.82288	1574.82397	0.14641	57786.00000	871.00000	9204.00000
1583.28468	0.82217	0.15060	58450.11400	894.72676	9562.80602	1581.01434	0.14948	58279.00000	894.00000	9472.00000
1589.47903	0.81359	0.15360	58825.25008	895.18773	9793.44446	1587.20471	0.15253	58712.00000	892.00000	9711.00000
1595.67339	0.80543	0.15652	59146.72764	885.70009	10004.73256	1593.39508	0.15544	59009.00000	896.00000	9929.00000
1601.86774	0.79737	0.15945	59574.82387	893.37146	10250.27690	1599.58545	0.15838	59419.00000	877.00000	10149.00000
1608.06210	0.78984	0.16224	59920.72690	909.46488	10483.56582	1605.77582	0.16124	59809.00000	920.00000	10415.00000
1614.25645	0.78272	0.16492	60220.95853	887.30010	10672.66510	1611.96619	0.16393	60102.00000	882.00000	10590.00000
1620.45081	0.77642	0.16733	60438.83040	897.12192	10860.24064	1618.15656	0.16651	60391.00000	905.00000	10810.00000
1626.64516	0.77146	0.16926	60579.30309	884.35356	10988.11262	1624.34693	0.16857	60502.00000	878.00000	10929.00000
1632.83952	0.76763	0.17075	60848.95373	899.57786	11136.23416	1630.53730	0.17027	60754.00000	903.00000	11094.00000
1639.03387	0.76437	0.17204	60928.35809	870.27700	11202.58890	1636.72767	0.17151	60938.00000	879.00000	11180.00000
1645.22823	0.75950	0.17398	60778.06969	873.98452	11296.23136	1642.91804	0.17315	60849.00000	868.00000	11254.00000
1651.42258	0.75311	0.17656	59777.88214	914.49031	11307.08468	1649.10841	0.17556	60357.00000	896.00000	11335.00000
1657.61694	0.74726	0.17895	57642.70006	920.63108	11071.19981	1655.29878	0.17814	58452.00000	931.00000	11178.00000
1663.81129	0.74329	0.18060	56689.89176	898.36344	10974.51980	1661.48915	0.18006	56762.00000	897.00000	10956.00000
1670.00565	0.74009	0.18193	55553.85124	917.06266	10856.80226	1667.67952	0.18142	56404.00000	914.00000	10981.00000
1676.20000	0.73789	0.18286	52318.47966	879.24303	10285.70787	1673.86989	0.18264	53497.00000	901.00000	10507.00000
0.00000	0.00000	0.00000	0.00000	0.00000	0.00000	1680.06026	0.18307	50136.00000	860.00000	9881.00000
0.00000	0.00000	0.00000	0.00000	0.00000	0.00000	1686.25063	0.18354	46019.00000	923.00000	9200.00000
0.00000	0.00000	0.00000	0.00000	0.00000	0.00000	1692.44100	0.18354	46019.00000	923.00000	9200.00000
