'File 橙子_2_2016一月28_1118.xls
'Part ID 橙子_2
'Scan Created 2016/1/28 11:18:13
'Instrument S1-00205
'Version 1.5.7
'Integration Time 10100 s
'Number of Scans 50
'Units Absorbance
'Thermistor 48.07
Wavelength	Absorbance	Normalized	100%	dark	Raw 1	Native Wvl	Native Norm	Native 100%	Native dark	Native 1
908.10000	0.38113	0.41579	3595.82598	881.87120	2008.77908	906.26400	0.40264	3684.00000	880.00000	2009.00000
914.29435	0.33706	0.46020	3338.07467	866.26472	2004.22680	912.45437	0.44699	3404.00000	876.00000	2006.00000
920.48871	0.29698	0.50469	3265.72768	878.51909	2083.29552	918.64474	0.49145	3257.00000	860.00000	2038.00000
926.68306	0.26114	0.54811	3334.01990	918.74175	2242.45404	924.83511	0.53542	3324.00000	924.00000	2209.00000
932.87742	0.22925	0.58986	3389.36197	864.93184	2354.15107	931.02548	0.57742	3355.00000	875.00000	2307.00000
939.07177	0.20381	0.62544	3619.59224	884.95115	2595.26909	937.21585	0.61637	3537.00000	873.00000	2515.00000
945.26613	0.19017	0.64541	3856.44440	889.93616	2804.54115	943.40622	0.64094	3802.00000	900.00000	2760.00000
951.46048	0.18788	0.64881	4005.12223	859.91735	2900.58037	949.59659	0.64987	3955.00000	859.00000	2871.00000
957.65484	0.19567	0.63729	4215.51392	893.73656	3010.51656	955.78696	0.64143	4148.00000	885.00000	2978.00000
963.84919	0.20179	0.62836	4374.23623	878.43417	3075.17942	961.97733	0.62960	4344.00000	891.00000	3065.00000
970.04355	0.20180	0.62835	4523.41127	896.06510	3175.26566	968.16770	0.62842	4453.00000	871.00000	3122.00000
976.23790	0.20335	0.62611	4726.50938	925.04592	3305.12805	974.35807	0.62700	4693.00000	945.00000	3295.00000
982.43226	0.20277	0.62695	4835.26800	856.06452	3350.93577	980.54844	0.62564	4778.00000	854.00000	3309.00000
988.62661	0.19849	0.63316	5079.18703	905.14928	3547.85663	986.73881	0.63157	5013.00000	901.00000	3498.00000
994.82097	0.19558	0.63740	5288.13901	870.37131	3686.42071	992.92918	0.63599	5216.00000	881.00000	3638.00000
1001.01532	0.19259	0.64182	5547.24444	876.96250	3874.22595	999.11955	0.64067	5470.00000	867.00000	3816.00000
1007.20968	0.18800	0.64863	5821.73207	889.84005	4089.11609	1005.30992	0.64556	5729.00000	896.00000	4016.00000
1013.40403	0.17762	0.66432	6108.36987	875.33513	4351.47029	1011.50029	0.65879	6031.00000	870.00000	4270.00000
1019.59839	0.16580	0.68266	6349.51155	919.49996	4626.50997	1017.69066	0.67730	6269.00000	908.00000	4539.00000
1025.79274	0.15666	0.69717	6610.09178	908.88037	4883.47000	1023.88103	0.69314	6536.00000	921.00000	4813.00000
1031.98710	0.14860	0.71023	6863.27600	885.10537	5131.08833	1030.07140	0.70592	6776.00000	883.00000	5043.00000
1038.18145	0.14018	0.72414	7137.95533	879.30949	5411.38826	1036.26177	0.72010	7062.00000	892.00000	5335.00000
1044.37581	0.13372	0.73498	7415.45215	852.78191	5676.24868	1042.45214	0.73194	7313.00000	848.00000	5580.00000
1050.57016	0.12891	0.74318	7763.75520	889.74850	5998.35792	1048.64251	0.74086	7664.00000	884.00000	5907.00000
1056.76452	0.12514	0.74965	8043.98752	873.54577	6248.88055	1054.83288	0.74777	7958.00000	881.00000	6173.00000
1062.95887	0.12256	0.75412	8346.47029	875.55305	6509.49963	1061.02325	0.75305	8246.00000	868.00000	6424.00000
1069.15323	0.12188	0.75529	8651.05608	883.28349	6750.17684	1067.21362	0.75528	8564.00000	890.00000	6686.00000
1075.34758	0.12201	0.75508	8931.01237	859.29405	6954.13430	1073.40399	0.75502	8836.00000	860.00000	6882.00000
1081.54194	0.12264	0.75398	9243.78719	871.40916	7184.00194	1079.59436	0.75480	9149.00000	870.00000	7119.00000
1087.73629	0.12557	0.74892	9580.78777	901.76500	7401.62862	1085.78473	0.75079	9462.00000	883.00000	7324.00000
1093.93065	0.12951	0.74215	9940.76391	922.65990	7615.48965	1091.97510	0.74439	9841.00000	933.00000	7564.00000
1100.12500	0.13463	0.73344	10254.38783	869.25749	7752.61828	1098.16547	0.73656	10144.00000	878.00000	7703.00000
1106.31935	0.14086	0.72300	10641.04469	875.00467	7935.92700	1104.35584	0.72621	10519.00000	873.00000	7878.00000
1112.51371	0.14694	0.71294	11015.80766	872.41348	8104.07504	1110.54621	0.71625	10897.00000	874.00000	8053.00000
1118.70806	0.15424	0.70107	11401.60672	872.77123	8254.18021	1116.73658	0.70514	11276.00000	871.00000	8208.00000
1124.90242	0.16475	0.68431	11814.30888	885.70510	8364.37812	1122.92695	0.69053	11680.00000	881.00000	8338.00000
1131.09677	0.18303	0.65610	12236.17715	886.26842	8332.71623	1129.11732	0.66682	12103.00000	890.00000	8367.00000
1137.29113	0.21173	0.61414	12606.57558	854.95675	8072.45802	1135.30769	0.62866	12498.00000	867.00000	8179.00000
1143.48548	0.24558	0.56809	12995.31207	851.62722	7749.92359	1141.49806	0.58245	12851.00000	843.00000	7837.00000
1149.67984	0.27444	0.53156	13491.13514	894.93569	7590.97281	1147.68843	0.54156	13335.00000	884.00000	7627.00000
1155.87419	0.29385	0.50834	13953.07917	885.15852	7527.90145	1153.87880	0.51491	13805.00000	896.00000	7543.00000
1162.06855	0.30713	0.49303	14446.12872	862.12568	7559.47641	1160.06917	0.49706	14279.00000	862.00000	7531.00000
1168.26290	0.31422	0.48504	14959.02414	891.75197	7715.07814	1166.25954	0.48703	14800.00000	881.00000	7660.00000
1174.45726	0.31957	0.47910	15420.71473	898.79570	7856.19130	1172.44991	0.48128	15273.00000	903.00000	7819.00000
1180.65161	0.32603	0.47203	15876.41905	861.08105	7948.86429	1178.64028	0.47418	15728.00000	875.00000	7918.00000
1186.84597	0.33097	0.46669	16371.22020	852.06070	8094.72875	1184.83065	0.46825	16201.00000	846.00000	8036.00000
1193.04032	0.33537	0.46199	16894.18264	880.38932	8278.52849	1191.02102	0.46358	16730.00000	875.00000	8225.00000
1199.23468	0.33795	0.45925	17400.55626	883.09277	8468.89662	1197.21139	0.45953	17229.00000	882.00000	8394.00000
1205.42903	0.33592	0.46140	17922.85290	876.52702	8741.70622	1203.40176	0.46036	17758.00000	882.00000	8651.00000
1211.62339	0.33201	0.46558	18412.23826	867.41129	9035.88628	1209.59213	0.46410	18250.00000	866.00000	8934.00000
1217.81774	0.32740	0.47055	18946.64823	877.09601	9379.66312	1215.78250	0.46883	18763.00000	876.00000	9262.00000
1224.01210	0.32217	0.47624	19522.38589	879.59709	9758.05876	1221.97287	0.47429	19334.00000	877.00000	9631.00000
1230.20645	0.31689	0.48207	20046.82356	877.27220	10118.32349	1228.16324	0.48021	19884.00000	882.00000	10007.00000
1236.40081	0.31199	0.48754	20578.92550	894.33634	10491.41100	1234.35361	0.48572	20387.00000	878.00000	10354.00000
1242.59516	0.30721	0.49293	21116.97255	904.50586	10867.86938	1240.54398	0.49119	20962.00000	919.00000	10764.00000
1248.78952	0.30330	0.49739	21555.61107	852.78714	11150.10818	1246.73435	0.49608	21399.00000	858.00000	11048.00000
1254.98387	0.30045	0.50067	22112.97196	897.03001	11519.29277	1252.92472	0.49964	21917.00000	878.00000	11390.00000
1261.17823	0.29838	0.50306	22669.33634	902.45329	11852.51951	1259.11509	0.50243	22498.00000	915.00000	11759.00000
1267.37258	0.29791	0.50360	23144.86310	840.51764	12072.95332	1265.30546	0.50366	22985.00000	857.00000	12002.00000
1273.56694	0.29884	0.50252	23720.39347	860.92978	12348.36383	1271.49583	0.50298	23506.00000	841.00000	12241.00000
1279.76129	0.30120	0.49980	24372.77955	913.59084	12638.53544	1277.68620	0.50103	24166.00000	906.00000	12560.00000
1285.95565	0.30575	0.49460	24945.52650	893.87771	12789.81870	1283.87657	0.49654	24754.00000	903.00000	12746.00000
1292.15000	0.31210	0.48741	25532.41484	877.59600	12894.65393	1290.06694	0.49010	25332.00000	880.00000	12864.00000
1298.34435	0.32067	0.47789	26175.67024	884.75253	12970.93478	1296.25731	0.48133	25949.00000	881.00000	12947.00000
1304.53871	0.33188	0.46571	26805.92834	868.00311	12947.71914	1302.44769	0.47021	26610.00000	881.00000	12979.00000
1310.73306	0.34620	0.45060	27432.03993	867.23944	12837.42479	1308.63806	0.45595	27196.00000	853.00000	12864.00000
1316.92742	0.36307	0.43344	28161.82657	892.73544	12712.34097	1314.82843	0.43950	27925.00000	899.00000	12777.00000
1323.12177	0.38248	0.41449	28842.74169	862.95220	12460.38466	1321.01880	0.42106	28606.00000	864.00000	12545.00000
1329.31613	0.40331	0.39509	29519.54369	871.94640	12190.31948	1327.20917	0.40164	29300.00000	874.00000	12291.00000
1335.51048	0.42399	0.37671	30183.25265	863.66515	11908.55554	1333.39954	0.38278	29944.00000	862.00000	11994.00000
1341.70484	0.44329	0.36033	30926.51890	893.32929	11715.29263	1339.58991	0.36567	30673.00000	881.00000	11775.00000
1347.89919	0.46076	0.34613	31587.63481	894.88004	11518.73297	1345.78028	0.35077	31380.00000	904.00000	11594.00000
1354.09355	0.47670	0.33366	32227.78710	859.30420	11325.45350	1351.97065	0.33778	31988.00000	867.00000	11379.00000
1360.28790	0.49276	0.32155	32929.95072	867.11433	11176.99992	1358.16102	0.32582	32704.00000	861.00000	11236.00000
1366.48226	0.51192	0.30766	33569.06337	866.55753	10927.84981	1364.35139	0.31274	33341.00000	873.00000	11027.00000
1372.67661	0.53732	0.29019	34261.83351	843.87902	10541.20595	1370.54176	0.29675	34024.00000	848.00000	10693.00000
1378.87097	0.57291	0.26736	34838.67465	870.52277	9952.21399	1376.73213	0.27590	34668.00000	855.00000	10184.00000
1385.06532	0.61996	0.23990	35121.03064	877.10458	9092.48636	1382.92250	0.24971	35059.00000	888.00000	9421.00000
1391.25968	0.67429	0.21169	35289.43299	872.38486	8157.96508	1389.11287	0.22127	35214.00000	858.00000	8460.00000
1397.45403	0.72898	0.18665	35460.60298	899.47130	7350.50018	1395.30324	0.19481	35427.00000	906.00000	7631.00000
1403.64839	0.77764	0.16686	35666.10671	869.36576	6675.52634	1401.49361	0.17309	35545.00000	870.00000	6872.00000
1409.84274	0.81705	0.15239	36323.03255	883.09719	6283.65533	1407.68398	0.15691	36050.00000	883.00000	6401.00000
1416.03710	0.84733	0.14212	37284.68636	884.03189	6057.49924	1413.87435	0.14528	36926.00000	879.00000	6116.00000
1422.23145	0.87001	0.13489	38329.42739	892.53935	5942.54834	1420.06472	0.13718	37970.00000	895.00000	5981.00000
1428.42581	0.88737	0.12961	39434.74114	878.71439	5875.84050	1426.25509	0.13125	39022.00000	881.00000	5887.00000
1434.62016	0.89987	0.12593	40575.07439	880.06733	5878.85313	1432.44546	0.12708	40203.00000	880.00000	5877.00000
1440.81452	0.90862	0.12342	41493.68414	879.47622	5892.03719	1438.63583	0.12418	41184.00000	879.00000	5884.00000
1447.00887	0.91400	0.12190	42510.04768	905.41306	5977.02658	1444.82620	0.12234	42113.00000	891.00000	5934.00000
1453.20323	0.91741	0.12095	43543.72896	892.86717	6051.26689	1451.01657	0.12126	43229.00000	914.00000	6045.00000
1459.39758	0.91870	0.12059	44405.02794	864.61268	6115.05862	1457.20694	0.12058	44070.00000	855.00000	6066.00000
1465.59194	0.91673	0.12114	45481.34063	906.97918	6306.49003	1463.39731	0.12088	45094.00000	903.00000	6245.00000
1471.78629	0.91251	0.12232	46480.51435	890.87025	6467.36834	1469.58768	0.12180	46150.00000	894.00000	6406.00000
1477.98065	0.90538	0.12434	47320.91755	868.50781	6644.45851	1475.77805	0.12354	47029.00000	883.00000	6584.00000
1484.17500	0.89628	0.12697	48225.65661	857.63729	6872.25404	1481.96842	0.12598	47881.00000	849.00000	6774.00000
1490.36935	0.88618	0.12996	49092.30051	893.89890	7157.77657	1488.15879	0.12888	48824.00000	887.00000	7065.00000
1496.56371	0.87550	0.13320	49778.04514	887.35808	7399.64251	1494.34916	0.13200	49521.00000	891.00000	7310.00000
1502.75806	0.86407	0.13675	50469.48096	863.36996	7646.91351	1500.53953	0.13546	50241.00000	875.00000	7562.00000
1508.95242	0.85243	0.14047	51158.04064	897.54966	7957.45947	1506.72990	0.13911	50884.00000	867.00000	7825.00000
1515.14677	0.84092	0.14424	51878.91086	902.58342	8255.17669	1512.92027	0.14289	51650.00000	933.00000	8180.00000
1521.34113	0.82947	0.14809	52577.57434	850.45197	8510.85907	1519.11064	0.14667	52288.00000	838.00000	8384.00000
1527.53548	0.81807	0.15203	53324.26188	911.75147	8880.01256	1525.30101	0.15064	53098.00000	907.00000	8769.00000
1533.72984	0.80727	0.15586	53919.19306	885.74627	9151.46478	1531.49138	0.15446	53680.00000	890.00000	9044.00000
1539.92419	0.79667	0.15971	54593.00479	874.24673	9453.63380	1537.68175	0.15833	54367.00000	884.00000	9352.00000
1546.11855	0.78658	0.16346	55208.54831	866.87961	9749.75246	1543.87212	0.16211	54973.00000	860.00000	9632.00000
1552.31290	0.77677	0.16720	55811.51925	888.84465	10071.63369	1550.06249	0.16584	55614.00000	887.00000	9963.00000
1558.50726	0.76719	0.17093	56431.29012	888.46797	10382.35579	1556.25286	0.16957	56172.00000	885.00000	10260.00000
1564.70161	0.75818	0.17451	57011.94896	890.80855	10684.31262	1562.44323	0.17324	56858.00000	895.00000	10590.00000
1570.89597	0.74958	0.17800	57413.89650	869.93991	10934.99544	1568.63360	0.17670	57231.00000	876.00000	10834.00000
1577.09032	0.74104	0.18153	57979.03512	879.44141	11244.84431	1574.82397	0.18027	57786.00000	871.00000	11131.00000
1583.28468	0.73305	0.18491	58450.11400	894.72676	11537.16030	1581.01434	0.18367	58279.00000	894.00000	11434.00000
1589.47903	0.72539	0.18820	58825.25008	895.18773	11797.40831	1587.20471	0.18701	58712.00000	892.00000	11705.00000
1595.67339	0.71806	0.19140	59146.72764	885.70009	12036.97285	1593.39508	0.19022	59009.00000	896.00000	11950.00000
1601.86774	0.71086	0.19460	59574.82387	893.37146	12312.56788	1599.58545	0.19343	59419.00000	877.00000	12201.00000
1608.06210	0.70421	0.19760	59920.72690	909.46488	12570.31296	1605.77582	0.19652	59809.00000	920.00000	12493.00000
1614.25645	0.69787	0.20051	60220.95853	887.30010	12784.06640	1611.96619	0.19943	60102.00000	882.00000	12692.00000
1620.45081	0.69219	0.20315	60438.83040	897.12192	12992.70319	1618.15656	0.20225	60391.00000	905.00000	12936.00000
1626.64516	0.68782	0.20520	60579.30309	884.35356	13133.91406	1624.34693	0.20448	60502.00000	878.00000	13070.00000
1632.83952	0.68443	0.20681	60848.95373	899.57786	13297.60666	1630.53730	0.20628	60754.00000	903.00000	13249.00000
1639.03387	0.68143	0.20824	60928.35809	870.27700	13376.97710	1636.72767	0.20766	60938.00000	879.00000	13351.00000
1645.22823	0.67712	0.21032	60778.06969	873.98452	13473.25106	1642.91804	0.20945	60849.00000	868.00000	13431.00000
1651.42258	0.67171	0.21296	59777.88214	914.49031	13449.60969	1649.10841	0.21195	60357.00000	896.00000	13499.00000
1657.61694	0.66715	0.21520	57642.70006	920.63108	13127.33135	1655.29878	0.21448	58452.00000	931.00000	13268.00000
1663.81129	0.66383	0.21685	56689.89176	898.36344	12997.28562	1661.48915	0.21624	56762.00000	897.00000	12977.00000
1670.00565	0.66095	0.21830	55553.85124	917.06266	12843.91046	1667.67952	0.21782	56404.00000	914.00000	13001.00000
1676.20000	0.65947	0.21904	52318.47966	879.24303	12146.99440	1673.86989	0.21886	53497.00000	901.00000	12412.00000
0.00000	0.00000	0.00000	0.00000	0.00000	0.00000	1680.06026	0.21923	50136.00000	860.00000	11663.00000
0.00000	0.00000	0.00000	0.00000	0.00000	0.00000	1686.25063	0.21951	46019.00000	923.00000	10822.00000
0.00000	0.00000	0.00000	0.00000	0.00000	0.00000	1692.44100	0.21951	46019.00000	923.00000	10822.00000
