'File 法国咖啡_2_2016一月28_1101.xls
'Part ID 法国咖啡_2
'Scan Created 2016/1/28 11:01:46
'Instrument S1-00205
'Version 1.5.7
'Integration Time 10100 s
'Number of Scans 50
'Units Absorbance
'Thermistor 48.39
Wavelength	Absorbance	Normalized	100%	dark	Raw 1	Native Wvl	Native Norm	Native 100%	Native dark	Native 1
908.10000	0.29891	0.50244	3514.15951	877.71219	2202.25729	906.26400	0.50166	3596.00000	879.00000	2242.00000
914.29435	0.29820	0.50327	3281.25113	863.65831	2080.40770	912.45437	0.50344	3339.00000	870.00000	2113.00000
920.48871	0.29430	0.50781	3227.40662	877.32414	2070.77417	918.64474	0.50489	3216.00000	863.00000	2051.00000
926.68306	0.28862	0.51449	3307.28228	905.48228	2141.08127	924.83511	0.51449	3291.00000	910.00000	2135.00000
932.87742	0.29020	0.51262	3382.42130	864.28145	2155.18274	931.02548	0.51193	3345.00000	872.00000	2138.00000
939.07177	0.28242	0.52189	3608.15965	881.02078	2304.39197	937.21585	0.51863	3528.00000	871.00000	2249.00000
945.26613	0.27673	0.52877	3846.64039	885.69520	2451.19643	943.40622	0.52781	3789.00000	894.00000	2422.00000
951.46048	0.27376	0.53241	4004.44998	860.87297	2534.61740	949.59659	0.53038	3954.00000	860.00000	2501.00000
957.65484	0.26655	0.54132	4209.47249	887.01493	2685.55587	955.78696	0.53893	4143.00000	881.00000	2639.00000
963.84919	0.26287	0.54592	4374.85740	871.56767	2783.92671	961.97733	0.54496	4341.00000	882.00000	2767.00000
970.04355	0.25696	0.55341	4520.56130	886.05989	2897.73130	968.16770	0.54986	4456.00000	866.00000	2840.00000
976.23790	0.25210	0.55963	4717.71427	911.39747	3041.13943	974.35807	0.56009	4679.00000	926.00000	3028.00000
982.43226	0.25275	0.55879	4843.76664	857.92770	3085.53386	980.54844	0.55700	4787.00000	857.00000	3046.00000
988.62661	0.24599	0.56755	5076.97721	894.34516	3267.97056	986.73881	0.56602	5011.00000	891.00000	3223.00000
994.82097	0.24533	0.56842	5297.39601	869.00992	3386.29464	992.92918	0.56801	5222.00000	877.00000	3345.00000
1001.01532	0.24192	0.57291	5554.06756	873.41459	3554.99685	999.11955	0.57109	5480.00000	866.00000	3501.00000
1007.20968	0.23838	0.57759	5827.05497	883.56657	3738.76198	1005.30992	0.57671	5731.00000	888.00000	3681.00000
1013.40403	0.23494	0.58218	6120.28754	870.80251	3926.96866	1011.50029	0.57987	6045.00000	868.00000	3870.00000
1019.59839	0.22823	0.59124	6348.68404	901.94795	4122.34950	1017.69066	0.58880	6270.00000	893.00000	4059.00000
1025.79274	0.22518	0.59542	6618.61076	896.05363	4303.23246	1023.88103	0.59468	6540.00000	905.00000	4256.00000
1031.98710	0.22272	0.59880	6878.79036	877.64868	4471.28381	1030.07140	0.59719	6792.00000	876.00000	4409.00000
1038.18145	0.21900	0.60394	7153.19229	875.20158	4666.55696	1036.26177	0.60281	7075.00000	884.00000	4616.00000
1044.37581	0.21598	0.60817	7435.03734	854.54502	4856.78685	1042.45214	0.60629	7334.00000	852.00000	4782.00000
1050.57016	0.21176	0.61410	7778.63216	881.04291	5116.68236	1048.64251	0.61276	7678.00000	876.00000	5044.00000
1056.76452	0.20943	0.61740	8066.37003	871.22278	5313.59549	1054.83288	0.61616	7979.00000	877.00000	5253.00000
1062.95887	0.20591	0.62242	8367.94643	870.25694	5536.99616	1061.02325	0.62083	8268.00000	865.00000	5461.00000
1069.15323	0.20318	0.62636	8674.59951	877.92605	5761.36495	1067.21362	0.62539	8586.00000	882.00000	5700.00000
1075.34758	0.20084	0.62974	8958.19691	861.24829	5960.27751	1073.40399	0.62842	8863.00000	862.00000	5890.00000
1081.54194	0.19774	0.63425	9269.61857	868.88623	6196.98242	1079.59436	0.63296	9175.00000	868.00000	6126.00000
1087.73629	0.19454	0.63893	9599.77547	889.96693	6455.10652	1085.78473	0.63720	9485.00000	877.00000	6362.00000
1093.93065	0.19191	0.64282	9958.85840	903.23915	6724.18359	1091.97510	0.64222	9855.00000	911.00000	6655.00000
1100.12500	0.19136	0.64363	10287.04131	864.70017	6929.32195	1098.16547	0.64316	10175.00000	871.00000	6855.00000
1106.31935	0.18984	0.64590	10673.09117	870.26271	7201.82595	1104.35584	0.64522	10550.00000	868.00000	7115.00000
1112.51371	0.18845	0.64797	11054.17109	867.39097	7468.15738	1110.54621	0.64726	10934.00000	870.00000	7384.00000
1118.70806	0.18701	0.65011	11440.58269	866.80701	7740.88632	1116.73658	0.64951	11315.00000	864.00000	7652.00000
1124.90242	0.18587	0.65182	11853.47185	879.92340	8032.74608	1122.92695	0.65126	11719.00000	877.00000	7938.00000
1131.09677	0.18537	0.65258	12279.20991	877.48685	8317.94070	1129.11732	0.65261	12144.00000	880.00000	8231.00000
1137.29113	0.18601	0.65161	12658.45812	855.49825	8546.49226	1135.30769	0.65194	12547.00000	865.00000	8481.00000
1143.48548	0.18630	0.65118	13049.18681	852.30684	8794.66214	1141.49806	0.65119	12906.00000	845.00000	8699.00000
1149.67984	0.18616	0.65139	13533.98158	886.77209	9125.16517	1147.68843	0.65136	13382.00000	879.00000	9023.00000
1155.87419	0.18760	0.64923	13997.40073	876.37382	9394.85007	1153.87880	0.65046	13845.00000	885.00000	9315.00000
1162.06855	0.19059	0.64478	14503.46887	861.13988	9657.47361	1160.06917	0.64601	14335.00000	860.00000	9565.00000
1168.26290	0.19229	0.64226	15009.58309	885.01032	9956.75666	1166.25954	0.64296	14853.00000	877.00000	9863.00000
1174.45726	0.19435	0.63922	15471.50866	888.01740	10209.92547	1172.44991	0.64047	15322.00000	892.00000	10134.00000
1180.65161	0.19678	0.63565	15938.18293	858.48109	10443.90089	1178.64028	0.63652	15786.00000	869.00000	10364.00000
1186.84597	0.19710	0.63519	16436.20435	853.30650	10751.38756	1184.83065	0.63500	16267.00000	848.00000	10639.00000
1193.04032	0.19616	0.63656	16954.92806	876.34677	11111.20731	1191.02102	0.63610	16791.00000	872.00000	10998.00000
1199.23468	0.19476	0.63861	17462.35109	876.98642	11468.63273	1197.21139	0.63775	17291.00000	877.00000	11345.00000
1205.42903	0.19271	0.64164	17986.83670	869.01927	11852.40979	1203.40176	0.64068	17820.00000	874.00000	11731.00000
1211.62339	0.19069	0.64463	18479.84056	863.23699	12219.48395	1209.59213	0.64358	18318.00000	861.00000	12096.00000
1217.81774	0.18850	0.64789	19014.17361	874.89956	12627.13395	1215.78250	0.64686	18829.00000	873.00000	12488.00000
1224.01210	0.18618	0.65136	19594.72563	876.04482	13068.77857	1221.97287	0.65010	19406.00000	875.00000	12922.00000
1230.20645	0.18369	0.65511	20120.20026	872.48020	13481.75468	1228.16324	0.65398	19956.00000	876.00000	13354.00000
1236.40081	0.18116	0.65893	20649.23727	886.34799	13908.75131	1234.35361	0.65748	20461.00000	874.00000	13752.00000
1242.59516	0.17864	0.66276	21186.14180	892.43754	14342.25669	1240.54398	0.66178	21027.00000	904.00000	14221.00000
1248.78952	0.17716	0.66502	21639.43707	853.74756	14676.69238	1246.73435	0.66423	21481.00000	857.00000	14556.00000
1254.98387	0.17511	0.66818	22186.10389	887.90098	15119.01501	1252.92472	0.66701	21995.00000	874.00000	14962.00000
1261.17823	0.17329	0.67097	22744.98332	890.64324	15554.26975	1259.11509	0.67030	22568.00000	900.00000	15424.00000
1267.37258	0.17244	0.67230	23243.71070	844.15789	15903.26733	1265.30546	0.67184	23078.00000	857.00000	15786.00000
1273.56694	0.17071	0.67497	23813.43146	859.99157	16352.98886	1271.49583	0.67378	23605.00000	844.00000	16180.00000
1279.76129	0.16834	0.67866	24453.54449	898.95555	16884.56790	1277.68620	0.67759	24247.00000	895.00000	16718.00000
1285.95565	0.16689	0.68094	25039.29282	882.87107	17332.02026	1283.87657	0.68028	24843.00000	888.00000	17184.00000
1292.15000	0.16556	0.68303	25633.20976	874.48479	17785.44996	1290.06694	0.68226	25432.00000	877.00000	17630.00000
1298.34435	0.16414	0.68527	26275.57944	875.36170	18281.33977	1296.25731	0.68458	26049.00000	873.00000	18108.00000
1304.53871	0.16342	0.68640	26910.28272	864.72671	18742.42604	1302.44769	0.68620	26712.00000	874.00000	18604.00000
1310.73306	0.16323	0.68671	27539.76334	865.28161	19182.99047	1308.63806	0.68658	27304.00000	854.00000	19014.00000
1316.92742	0.16343	0.68638	28270.79252	884.98210	19682.10353	1314.82843	0.68672	28032.00000	890.00000	19529.00000
1323.12177	0.16469	0.68441	28955.06915	860.68820	20088.74409	1321.01880	0.68518	28719.00000	862.00000	19949.00000
1329.31613	0.16678	0.68112	29633.32179	868.03484	20460.63675	1327.20917	0.68247	29411.00000	869.00000	20348.00000
1335.51048	0.16999	0.67610	30302.79696	861.31771	20766.86198	1333.39954	0.67794	30064.00000	861.00000	20659.00000
1341.70484	0.17410	0.66973	31040.63710	883.35260	21080.50409	1339.58991	0.67210	30788.00000	873.00000	20979.00000
1347.89919	0.17946	0.66151	31710.62252	886.82909	21277.09127	1345.78028	0.66452	31498.00000	894.00000	21231.00000
1354.09355	0.18536	0.65259	32368.46417	858.22619	21421.28518	1351.97065	0.65556	32123.00000	864.00000	21356.00000
1360.28790	0.19049	0.64493	33079.41609	863.88248	21640.72875	1358.16102	0.64738	32852.00000	860.00000	21571.00000
1366.48226	0.19515	0.63804	33719.60962	862.84716	21826.80355	1364.35139	0.64045	33491.00000	867.00000	21761.00000
1372.67661	0.19992	0.63107	34419.13569	848.00380	22033.67057	1370.54176	0.63342	34178.00000	851.00000	21961.00000
1378.87097	0.20417	0.62493	34997.78982	865.89108	22196.09244	1376.73213	0.62692	34829.00000	855.00000	22154.00000
1385.06532	0.20839	0.61889	35282.55609	871.96034	22168.35440	1382.92250	0.62114	35216.00000	879.00000	22207.00000
1391.25968	0.21346	0.61170	35454.56849	868.59113	22024.82621	1389.11287	0.61427	35383.00000	859.00000	22066.00000
1397.45403	0.22032	0.60211	35619.60134	886.37628	21799.83699	1395.30324	0.60599	35583.00000	891.00000	21914.00000
1403.64839	0.23042	0.58828	35834.55471	865.31191	21437.07634	1401.49361	0.59343	35714.00000	866.00000	21546.00000
1409.84274	0.24319	0.57123	36489.35769	873.82043	21218.17682	1407.68398	0.57759	36214.00000	874.00000	21286.00000
1416.03710	0.25850	0.55144	37454.71523	877.22955	21047.49057	1413.87435	0.55849	37098.00000	872.00000	21104.00000
1422.23145	0.27492	0.53098	38501.95566	886.60375	20859.52106	1420.06472	0.53814	38137.00000	888.00000	20933.00000
1428.42581	0.29081	0.51190	39622.23895	874.12429	20709.24996	1426.25509	0.51822	39208.00000	877.00000	20741.00000
1434.62016	0.30437	0.49617	40761.26708	872.53526	20664.40818	1432.44546	0.50133	40388.00000	873.00000	20683.00000
1440.81452	0.31523	0.48392	41685.67119	872.92918	20622.98411	1438.63583	0.48779	41375.00000	872.00000	20629.00000
1447.00887	0.32303	0.47530	42697.97010	892.09592	20762.55300	1444.82620	0.47797	42303.00000	882.00000	20680.00000
1453.20323	0.32911	0.46869	43743.69350	881.19502	20970.47444	1451.01657	0.47097	43420.00000	897.00000	20924.00000
1459.39758	0.33363	0.46384	44616.30730	861.83262	21157.03063	1457.20694	0.46514	44284.00000	854.00000	21055.00000
1465.59194	0.33559	0.46176	45681.51347	893.65188	21574.69278	1463.39731	0.46236	45294.00000	891.00000	21421.00000
1471.78629	0.33658	0.46070	46691.44736	880.41136	21985.81198	1469.58768	0.46096	46358.00000	883.00000	21845.00000
1477.98065	0.33689	0.46037	47539.84378	864.96700	22352.75556	1475.77805	0.46046	47244.00000	875.00000	22226.00000
1484.17500	0.33634	0.46096	48453.02745	858.97393	22797.94503	1481.96842	0.46054	48107.00000	852.00000	22615.00000
1490.36935	0.33463	0.46277	49314.35954	885.82004	23297.23271	1488.15879	0.46209	49049.00000	881.00000	23139.00000
1496.56371	0.33281	0.46472	50001.49019	880.23876	23708.09008	1494.34916	0.46402	49741.00000	883.00000	23554.00000
1502.75806	0.33092	0.46674	50705.77350	864.52184	24127.51777	1500.53953	0.46601	50474.00000	872.00000	23987.00000
1508.95242	0.32864	0.46920	51385.78695	891.73536	24583.87382	1506.72990	0.46823	51118.00000	869.00000	24397.00000
1515.14677	0.32678	0.47121	52107.85403	893.71978	25026.31182	1512.92027	0.47073	51872.00000	917.00000	24903.00000
1521.34113	0.32542	0.47269	52815.89525	851.69957	25415.01962	1519.11064	0.47197	52530.00000	844.00000	25238.00000
1527.53548	0.32379	0.47448	53548.61369	896.26537	25878.44382	1525.30101	0.47405	53323.00000	892.00000	25747.00000
1533.72984	0.32329	0.47502	54149.95370	878.59624	26183.80294	1531.49138	0.47482	53910.00000	882.00000	26061.00000
1539.92419	0.32316	0.47516	54832.12801	868.84378	26509.83172	1537.68175	0.47524	54600.00000	876.00000	26408.00000
1546.11855	0.32355	0.47473	55451.13851	864.00141	26778.34003	1543.87212	0.47484	55220.00000	859.00000	26672.00000
1552.31290	0.32395	0.47429	56042.33834	881.37311	27043.87289	1550.06249	0.47453	55845.00000	879.00000	26962.00000
1558.50726	0.32462	0.47356	56662.34212	881.97129	27297.46287	1556.25286	0.47380	56406.00000	880.00000	27188.00000
1564.70161	0.32540	0.47271	57241.63462	881.81730	27523.90460	1562.44323	0.47310	57084.00000	885.00000	27473.00000
1570.89597	0.32625	0.47179	57652.97230	868.16681	27658.80513	1568.63360	0.47203	57470.00000	872.00000	27588.00000
1577.09032	0.32642	0.47160	58206.47218	874.43948	27912.33322	1574.82397	0.47163	58018.00000	869.00000	27822.00000
1583.28468	0.32660	0.47141	58673.40818	887.42953	28128.54252	1581.01434	0.47153	58502.00000	885.00000	28053.00000
1589.47903	0.32665	0.47136	59041.87130	888.83630	28299.60688	1587.20471	0.47128	58934.00000	888.00000	28244.00000
1595.67339	0.32633	0.47171	59358.10218	876.53006	28462.74123	1593.39508	0.47160	59218.00000	885.00000	28395.00000
1601.86774	0.32574	0.47235	59778.17203	883.72242	28702.33222	1599.58545	0.47200	59632.00000	871.00000	28606.00000
1608.06210	0.32496	0.47319	60103.05486	896.34115	28912.36821	1605.77582	0.47298	59993.00000	904.00000	28852.00000
1614.25645	0.32436	0.47385	60403.71328	879.81794	29085.24692	1611.96619	0.47351	60288.00000	876.00000	29008.00000
1620.45081	0.32367	0.47460	60606.54759	887.56155	29230.15858	1618.15656	0.47444	60563.00000	893.00000	29203.00000
1626.64516	0.32335	0.47496	60733.55595	878.59339	29307.04258	1624.34693	0.47475	60663.00000	874.00000	29259.00000
1632.83952	0.32286	0.47549	60986.21919	889.52033	29464.64016	1630.53730	0.47535	60896.00000	892.00000	29415.00000
1639.03387	0.32259	0.47578	61048.69415	866.62659	29500.14731	1636.72767	0.47564	61067.00000	874.00000	29504.00000
1645.22823	0.32198	0.47645	60863.78586	869.32764	29454.01712	1642.91804	0.47616	60949.00000	864.00000	29474.00000
1651.42258	0.32095	0.47759	59805.79968	899.77194	29032.32181	1649.10841	0.47710	60411.00000	887.00000	29286.00000
1657.61694	0.32002	0.47861	57584.63778	905.33477	28032.62531	1655.29878	0.47833	58428.00000	911.00000	28423.00000
1663.81129	0.31894	0.47980	56481.05190	890.63733	27563.68509	1661.48915	0.47917	56625.00000	891.00000	27597.00000
1670.00565	0.31656	0.48243	55048.67016	902.23167	27022.80267	1667.67952	0.48133	56028.00000	899.00000	27434.00000
1676.20000	0.31336	0.48600	51378.45954	875.98122	25423.03138	1673.86989	0.48453	52735.00000	893.00000	26012.00000
0.00000	0.00000	0.00000	0.00000	0.00000	0.00000	1680.06026	0.48948	48849.00000	859.00000	24349.00000
0.00000	0.00000	0.00000	0.00000	0.00000	0.00000	1686.25063	0.49671	44181.00000	908.00000	22402.00000
0.00000	0.00000	0.00000	0.00000	0.00000	0.00000	1692.44100	0.49671	44181.00000	908.00000	22402.00000
