'File 法国咖啡_5_2016一月28_1101.xls
'Part ID 法国咖啡_5
'Scan Created 2016/1/28 11:01:58
'Instrument S1-00205
'Version 1.5.7
'Integration Time 10100 s
'Number of Scans 50
'Units Absorbance
'Thermistor 48.39
Wavelength	Absorbance	Normalized	100%	dark	Raw 1	Native Wvl	Native Norm	Native 100%	Native dark	Native 1
908.10000	0.29985	0.50136	3514.15951	877.71219	2199.32623	906.26400	0.50018	3596.00000	879.00000	2238.00000
914.29435	0.29922	0.50209	3281.25113	863.65831	2077.59007	912.45437	0.50263	3339.00000	870.00000	2111.00000
920.48871	0.29603	0.50579	3227.40662	877.32414	2066.02060	918.64474	0.50276	3216.00000	863.00000	2046.00000
926.68306	0.28965	0.51327	3307.28228	905.48228	2138.14093	924.83511	0.51323	3291.00000	910.00000	2132.00000
932.87742	0.29167	0.51090	3382.42130	864.28145	2150.86917	931.02548	0.51031	3345.00000	872.00000	2134.00000
939.07177	0.28412	0.51985	3608.15965	881.02078	2298.79071	937.21585	0.51675	3528.00000	871.00000	2244.00000
945.26613	0.27813	0.52707	3846.64039	885.69520	2446.22726	943.40622	0.52573	3789.00000	894.00000	2416.00000
951.46048	0.27477	0.53116	4004.44998	860.87297	2530.65400	949.59659	0.52941	3954.00000	860.00000	2498.00000
957.65484	0.26868	0.53866	4209.47249	887.01493	2676.74758	955.78696	0.53648	4143.00000	881.00000	2631.00000
963.84919	0.26447	0.54391	4374.85740	871.56767	2776.88574	961.97733	0.54264	4341.00000	882.00000	2759.00000
970.04355	0.25844	0.55152	4520.56130	886.05989	2890.84338	968.16770	0.54819	4456.00000	866.00000	2834.00000
976.23790	0.25428	0.55683	4717.71427	911.39747	3030.50870	974.35807	0.55742	4679.00000	926.00000	3018.00000
982.43226	0.25497	0.55594	4843.76664	857.92770	3074.13721	980.54844	0.55420	4787.00000	857.00000	3035.00000
988.62661	0.24812	0.56478	5076.97721	894.34516	3256.42036	986.73881	0.56311	5011.00000	891.00000	3211.00000
994.82097	0.24741	0.56571	5297.39601	869.00992	3374.24962	992.92918	0.56548	5222.00000	877.00000	3334.00000
1001.01532	0.24438	0.56967	5554.06756	873.41459	3539.86050	999.11955	0.56784	5480.00000	866.00000	3486.00000
1007.20968	0.24051	0.57477	5827.05497	883.56657	3724.80447	1005.30992	0.57382	5731.00000	888.00000	3667.00000
1013.40403	0.23717	0.57920	6120.28754	870.80251	3911.36806	1011.50029	0.57698	6045.00000	868.00000	3855.00000
1019.59839	0.23092	0.58760	6348.68404	901.94795	4102.44773	1017.69066	0.58546	6270.00000	893.00000	4041.00000
1025.79274	0.22806	0.59148	6618.61076	896.05363	4280.77033	1023.88103	0.59059	6540.00000	905.00000	4233.00000
1031.98710	0.22517	0.59543	6878.79036	877.64868	4451.06041	1030.07140	0.59381	6792.00000	876.00000	4389.00000
1038.18145	0.22179	0.60009	7153.19229	875.20158	4642.36224	1036.26177	0.59910	7075.00000	884.00000	4593.00000
1044.37581	0.21886	0.60414	7435.03734	854.54502	4830.26743	1042.45214	0.60228	7334.00000	852.00000	4756.00000
1050.57016	0.21453	0.61019	7778.63216	881.04291	5089.74743	1048.64251	0.60879	7678.00000	876.00000	5017.00000
1056.76452	0.21235	0.61327	8066.37003	871.22278	5283.83192	1054.83288	0.61222	7979.00000	877.00000	5225.00000
1062.95887	0.20916	0.61779	8367.94643	870.25694	5502.27513	1061.02325	0.61624	8268.00000	865.00000	5427.00000
1069.15323	0.20636	0.62179	8674.59951	877.92605	5725.70132	1067.21362	0.62085	8586.00000	882.00000	5665.00000
1075.34758	0.20417	0.62493	8958.19691	861.24829	5921.39554	1073.40399	0.62367	8863.00000	862.00000	5852.00000
1081.54194	0.20103	0.62947	9269.61857	868.88623	6156.76156	1079.59436	0.62814	9175.00000	868.00000	6086.00000
1087.73629	0.19782	0.63413	9599.77547	889.96693	6413.24342	1085.78473	0.63243	9485.00000	877.00000	6321.00000
1093.93065	0.19526	0.63789	9958.85840	903.23915	6679.57077	1091.97510	0.63730	9855.00000	911.00000	6611.00000
1100.12500	0.19476	0.63862	10287.04131	864.70017	6882.10186	1098.16547	0.63822	10175.00000	871.00000	6809.00000
1106.31935	0.19332	0.64073	10673.09117	870.26271	7151.21081	1104.35584	0.64005	10550.00000	868.00000	7065.00000
1112.51371	0.19168	0.64316	11054.17109	867.39097	7419.14809	1110.54621	0.64229	10934.00000	870.00000	7334.00000
1118.70806	0.19027	0.64525	11440.58269	866.80701	7689.46869	1116.73658	0.64482	11315.00000	864.00000	7603.00000
1124.90242	0.18936	0.64660	11853.47185	879.92340	7975.54749	1122.92695	0.64601	11719.00000	877.00000	7881.00000
1131.09677	0.18885	0.64736	12279.20991	877.48685	8258.38482	1129.11732	0.64755	12144.00000	880.00000	8174.00000
1137.29113	0.18977	0.64599	12658.45812	855.49825	8480.17421	1135.30769	0.64629	12547.00000	865.00000	8415.00000
1143.48548	0.18981	0.64594	13049.18681	852.30684	8730.66174	1141.49806	0.64588	12906.00000	845.00000	8635.00000
1149.67984	0.18969	0.64611	13533.98158	886.77209	9058.41108	1147.68843	0.64608	13382.00000	879.00000	8957.00000
1155.87419	0.19101	0.64416	13997.40073	876.37382	9328.28396	1153.87880	0.64529	13845.00000	885.00000	9248.00000
1162.06855	0.19400	0.63973	14503.46887	861.13988	9588.59898	1160.06917	0.64104	14335.00000	860.00000	9498.00000
1168.26290	0.19580	0.63708	15009.58309	885.01032	9883.60165	1166.25954	0.63774	14853.00000	877.00000	9790.00000
1174.45726	0.19764	0.63440	15471.50866	888.01740	10139.71675	1172.44991	0.63555	15322.00000	892.00000	10063.00000
1180.65161	0.20009	0.63082	15938.18293	858.48109	10371.06391	1178.64028	0.63176	15786.00000	869.00000	10293.00000
1186.84597	0.20053	0.63019	16436.20435	853.30650	10673.57110	1184.83065	0.63000	16267.00000	848.00000	10562.00000
1193.04032	0.19950	0.63168	16954.92806	876.34677	11032.82472	1191.02102	0.63120	16791.00000	872.00000	10920.00000
1199.23468	0.19819	0.63359	17462.35109	876.98642	11385.35321	1197.21139	0.63281	17291.00000	877.00000	11264.00000
1205.42903	0.19626	0.63642	17986.83670	869.01927	11763.10183	1203.40176	0.63549	17820.00000	874.00000	11643.00000
1211.62339	0.19423	0.63940	18479.84056	863.23699	12127.28427	1209.59213	0.63837	18318.00000	861.00000	12005.00000
1217.81774	0.19206	0.64260	19014.17361	874.89956	12531.09765	1215.78250	0.64157	18829.00000	873.00000	12393.00000
1224.01210	0.18973	0.64606	19594.72563	876.04482	12969.47228	1221.97287	0.64481	19406.00000	875.00000	12824.00000
1230.20645	0.18724	0.64976	20120.20026	872.48020	13378.84450	1228.16324	0.64864	19956.00000	876.00000	13252.00000
1236.40081	0.18474	0.65352	20649.23727	886.34799	13801.94878	1234.35361	0.65212	20461.00000	874.00000	13647.00000
1242.59516	0.18229	0.65721	21186.14180	892.43754	14229.64331	1240.54398	0.65626	21027.00000	904.00000	14110.00000
1248.78952	0.18082	0.65944	21639.43707	853.74756	14560.66883	1246.73435	0.65865	21481.00000	857.00000	14441.00000
1254.98387	0.17868	0.66270	22186.10389	887.90098	15002.37492	1252.92472	0.66147	21995.00000	874.00000	14845.00000
1261.17823	0.17691	0.66542	22744.98332	890.64324	15432.78074	1259.11509	0.66485	22568.00000	900.00000	15306.00000
1267.37258	0.17620	0.66649	23243.71070	844.15789	15773.30971	1265.30546	0.66604	23078.00000	857.00000	15657.00000
1273.56694	0.17436	0.66933	23813.43146	859.99157	16223.41593	1271.49583	0.66812	23605.00000	844.00000	16051.00000
1279.76129	0.17203	0.67293	24453.54449	898.95555	16749.56787	1277.68620	0.67189	24247.00000	895.00000	16585.00000
1285.95565	0.17057	0.67520	25039.29282	882.87107	17193.35737	1283.87657	0.67451	24843.00000	888.00000	17046.00000
1292.15000	0.16921	0.67731	25633.20976	874.48479	17643.79848	1290.06694	0.67656	25432.00000	877.00000	17490.00000
1298.34435	0.16785	0.67944	26275.57944	875.36170	18133.32346	1296.25731	0.67878	26049.00000	873.00000	17962.00000
1304.53871	0.16719	0.68048	26910.28272	864.72671	18588.00479	1302.44769	0.68032	26712.00000	874.00000	18452.00000
1310.73306	0.16700	0.68078	27539.76334	865.28161	19024.76675	1308.63806	0.68060	27304.00000	854.00000	18856.00000
1316.92742	0.16712	0.68057	28270.79252	884.98210	19522.96473	1314.82843	0.68090	28032.00000	890.00000	19371.00000
1323.12177	0.16842	0.67854	28955.06915	860.68820	19923.94283	1321.01880	0.67933	28719.00000	862.00000	19786.00000
1329.31613	0.17050	0.67530	29633.32179	868.03484	20293.27486	1327.20917	0.67662	29411.00000	869.00000	20181.00000
1335.51048	0.17364	0.67045	30302.79696	861.31771	20600.30218	1333.39954	0.67223	30064.00000	861.00000	20492.00000
1341.70484	0.17769	0.66422	31040.63710	883.35260	20914.35778	1339.58991	0.66656	30788.00000	873.00000	20813.00000
1347.89919	0.18305	0.65608	31710.62252	886.82909	21109.65417	1345.78028	0.65906	31498.00000	894.00000	21064.00000
1354.09355	0.18887	0.64733	32368.46417	858.22619	21255.66869	1351.97065	0.65021	32123.00000	864.00000	21189.00000
1360.28790	0.19386	0.63995	33079.41609	863.88248	21480.22006	1358.16102	0.64232	32852.00000	860.00000	21409.00000
1366.48226	0.19850	0.63314	33719.60962	862.84716	21665.52036	1364.35139	0.63554	33491.00000	867.00000	21601.00000
1372.67661	0.20325	0.62625	34419.13569	848.00380	21872.07482	1370.54176	0.62853	34178.00000	851.00000	21798.00000
1378.87097	0.20734	0.62038	34997.78982	865.89108	22040.54511	1376.73213	0.62230	34829.00000	855.00000	21997.00000
1385.06532	0.21156	0.61438	35282.55609	871.96034	22013.07718	1382.92250	0.61662	35216.00000	879.00000	22052.00000
1391.25968	0.21663	0.60726	35454.56849	868.59113	21871.09037	1389.11287	0.60978	35383.00000	859.00000	21911.00000
1397.45403	0.22346	0.59778	35619.60134	886.37628	21649.41333	1395.30324	0.60164	35583.00000	891.00000	21763.00000
1403.64839	0.23352	0.58408	35834.55471	865.31191	21290.37428	1401.49361	0.58916	35714.00000	866.00000	21397.00000
1409.84274	0.24616	0.56734	36489.35769	873.82043	21079.74069	1407.68398	0.57360	36214.00000	874.00000	21145.00000
1416.03710	0.26133	0.54785	37454.71523	877.22955	20916.39296	1413.87435	0.55479	37098.00000	872.00000	20970.00000
1422.23145	0.27758	0.52774	38501.95566	886.60375	20737.72330	1420.06472	0.53478	38137.00000	888.00000	20808.00000
1428.42581	0.29334	0.50893	39622.23895	874.12429	20593.97637	1426.25509	0.51517	39208.00000	877.00000	20624.00000
1434.62016	0.30671	0.49350	40761.26708	872.53526	20557.68153	1432.44546	0.49852	40388.00000	873.00000	20572.00000
1440.81452	0.31732	0.48160	41685.67119	872.92918	20528.21850	1438.63583	0.48537	41375.00000	872.00000	20531.00000
1447.00887	0.32498	0.47317	42697.97010	892.09592	20673.39829	1444.82620	0.47577	42303.00000	882.00000	20589.00000
1453.20323	0.33095	0.46672	43743.69350	881.19502	20885.89174	1451.01657	0.46895	43420.00000	897.00000	20838.00000
1459.39758	0.33530	0.46206	44616.30730	861.83262	21079.20396	1457.20694	0.46327	44284.00000	854.00000	20974.00000
1465.59194	0.33717	0.46008	45681.51347	893.65188	21499.40167	1463.39731	0.46069	45294.00000	891.00000	21347.00000
1471.78629	0.33825	0.45894	46691.44736	880.41136	21904.84989	1469.58768	0.45920	46358.00000	883.00000	21765.00000
1477.98065	0.33844	0.45873	47539.84378	864.96700	22276.13567	1475.77805	0.45875	47244.00000	875.00000	22147.00000
1484.17500	0.33778	0.45943	48453.02745	858.97393	22725.17155	1481.96842	0.45900	48107.00000	852.00000	22542.00000
1490.36935	0.33612	0.46119	49314.35954	885.82004	23220.48413	1488.15879	0.46053	49049.00000	881.00000	23064.00000
1496.56371	0.33426	0.46316	50001.49019	880.23876	23631.53313	1494.34916	0.46242	49741.00000	883.00000	23476.00000
1502.75806	0.33228	0.46529	50705.77350	864.52184	24055.07390	1500.53953	0.46454	50474.00000	872.00000	23914.00000
1508.95242	0.33003	0.46771	51385.78695	891.73536	24508.32655	1506.72990	0.46676	51118.00000	869.00000	24323.00000
1515.14677	0.32820	0.46968	52107.85403	893.71978	24947.72289	1512.92027	0.46920	51872.00000	917.00000	24825.00000
1521.34113	0.32678	0.47121	52815.89525	851.69957	25338.07068	1519.11064	0.47046	52530.00000	844.00000	25160.00000
1527.53548	0.32513	0.47301	53548.61369	896.26537	25801.43987	1525.30101	0.47260	53323.00000	892.00000	25671.00000
1533.72984	0.32464	0.47355	54149.95370	878.59624	26105.24763	1531.49138	0.47333	53910.00000	882.00000	25982.00000
1539.92419	0.32443	0.47377	54832.12801	868.84378	26435.13135	1537.68175	0.47383	54600.00000	876.00000	26332.00000
1546.11855	0.32476	0.47341	55451.13851	864.00141	26706.12152	1543.87212	0.47350	55220.00000	859.00000	26599.00000
1552.31290	0.32516	0.47297	56042.33834	881.37311	26970.96014	1550.06249	0.47322	55845.00000	879.00000	26890.00000
1558.50726	0.32582	0.47225	56662.34212	881.97129	27224.48635	1556.25286	0.47246	56406.00000	880.00000	27114.00000
1564.70161	0.32653	0.47149	57241.63462	881.81730	27454.86398	1562.44323	0.47186	57084.00000	885.00000	27403.00000
1570.89597	0.32738	0.47057	57652.97230	868.16681	27589.26338	1568.63360	0.47081	57470.00000	872.00000	27519.00000
1577.09032	0.32754	0.47039	58206.47218	874.43948	27843.03317	1574.82397	0.47040	58018.00000	869.00000	27752.00000
1583.28468	0.32765	0.47028	58673.40818	887.42953	28062.89651	1581.01434	0.47036	58502.00000	885.00000	27986.00000
1589.47903	0.32766	0.47026	59041.87130	888.83630	28235.94290	1587.20471	0.47018	58934.00000	888.00000	28180.00000
1595.67339	0.32734	0.47061	59358.10218	876.53006	28398.28081	1593.39508	0.47051	59218.00000	885.00000	28331.00000
1601.86774	0.32671	0.47129	59778.17203	883.72242	28640.09062	1599.58545	0.47091	59632.00000	871.00000	28542.00000
1608.06210	0.32587	0.47220	60103.05486	896.34115	28853.81333	1605.77582	0.47198	59993.00000	904.00000	28793.00000
1614.25645	0.32531	0.47282	60403.71328	879.81794	29023.88022	1611.96619	0.47250	60288.00000	876.00000	28948.00000
1620.45081	0.32464	0.47355	60606.54759	887.56155	29167.22417	1618.15656	0.47339	60563.00000	893.00000	29140.00000
1626.64516	0.32429	0.47392	60733.55595	878.59339	29245.31950	1624.34693	0.47372	60663.00000	874.00000	29197.00000
1632.83952	0.32381	0.47445	60986.21919	889.52033	29402.16562	1630.53730	0.47432	60896.00000	892.00000	29353.00000
1639.03387	0.32354	0.47474	61048.69415	866.62659	29437.39280	1636.72767	0.47459	61067.00000	874.00000	29441.00000
1645.22823	0.32292	0.47542	60863.78586	869.32764	29392.29224	1642.91804	0.47513	60949.00000	864.00000	29412.00000
1651.42258	0.32183	0.47661	59805.79968	899.77194	28975.01698	1649.10841	0.47609	60411.00000	887.00000	29226.00000
1657.61694	0.32082	0.47773	57584.63778	905.33477	27982.77989	1655.29878	0.47742	58428.00000	911.00000	28371.00000
1663.81129	0.31971	0.47895	56481.05190	890.63733	27516.27053	1661.48915	0.47831	56625.00000	891.00000	27549.00000
1670.00565	0.31730	0.48161	55048.67016	902.23167	26978.53162	1667.67952	0.48049	56028.00000	899.00000	27388.00000
1676.20000	0.31402	0.48527	51378.45954	875.98122	25386.19458	1673.86989	0.48376	52735.00000	893.00000	25972.00000
0.00000	0.00000	0.00000	0.00000	0.00000	0.00000	1680.06026	0.48883	48849.00000	859.00000	24318.00000
0.00000	0.00000	0.00000	0.00000	0.00000	0.00000	1686.25063	0.49618	44181.00000	908.00000	22379.00000
0.00000	0.00000	0.00000	0.00000	0.00000	0.00000	1692.44100	0.49618	44181.00000	908.00000	22379.00000
