'File 法国咖啡_1_2016一月28_1101.xls
'Part ID 法国咖啡_1
'Scan Created 2016/1/28 11:01:29
'Instrument S1-00205
'Version 1.5.7
'Integration Time 10100 s
'Number of Scans 50
'Units Absorbance
'Thermistor 48.07
Wavelength	Absorbance	Normalized	100%	dark	Raw 1	Native Wvl	Native Norm	Native 100%	Native dark	Native 1
908.10000	0.29522	0.50674	3514.15951	877.71219	2213.47084	906.26400	0.50534	3596.00000	879.00000	2252.00000
914.29435	0.29439	0.50770	3281.25113	863.65831	2091.17451	912.45437	0.50830	3339.00000	870.00000	2125.00000
920.48871	0.29114	0.51152	3227.40662	877.32414	2079.48772	918.64474	0.50829	3216.00000	863.00000	2059.00000
926.68306	0.28436	0.51957	3307.28228	905.48228	2153.24896	924.83511	0.51953	3291.00000	910.00000	2147.00000
932.87742	0.28647	0.51705	3382.42130	864.28145	2166.35948	931.02548	0.51638	3345.00000	872.00000	2149.00000
939.07177	0.27824	0.52694	3608.15965	881.02078	2318.14198	937.21585	0.52352	3528.00000	871.00000	2262.00000
945.26613	0.27248	0.53397	3846.64039	885.69520	2466.59015	943.40622	0.53299	3789.00000	894.00000	2437.00000
951.46048	0.26960	0.53753	4004.44998	860.87297	2550.72448	949.59659	0.53555	3954.00000	860.00000	2517.00000
957.65484	0.26274	0.54609	4209.47249	887.01493	2701.39138	955.78696	0.54384	4143.00000	881.00000	2655.00000
963.84919	0.25911	0.55067	4374.85740	871.56767	2800.56163	961.97733	0.54958	4341.00000	882.00000	2783.00000
970.04355	0.25265	0.55892	4520.56130	886.05989	2917.79226	968.16770	0.55515	4456.00000	866.00000	2859.00000
976.23790	0.24798	0.56497	4717.71427	911.39747	3061.41548	974.35807	0.56568	4679.00000	926.00000	3049.00000
982.43226	0.24930	0.56325	4843.76664	857.92770	3103.32466	980.54844	0.56158	4787.00000	857.00000	3064.00000
988.62661	0.24239	0.57228	5076.97721	894.34516	3287.73582	986.73881	0.57063	5011.00000	891.00000	3242.00000
994.82097	0.24170	0.57319	5297.39601	869.00992	3407.40958	992.92918	0.57284	5222.00000	877.00000	3366.00000
1001.01532	0.23815	0.57790	5554.06756	873.41459	3578.38664	999.11955	0.57586	5480.00000	866.00000	3523.00000
1007.20968	0.23419	0.58320	5827.05497	883.56657	3766.46779	1005.30992	0.58228	5731.00000	888.00000	3708.00000
1013.40403	0.23126	0.58713	6120.28754	870.80251	3952.99840	1011.50029	0.58509	6045.00000	868.00000	3897.00000
1019.59839	0.22504	0.59561	6348.68404	901.94795	4146.10869	1017.69066	0.59327	6270.00000	893.00000	4083.00000
1025.79274	0.22185	0.59999	6618.61076	896.05363	4329.43226	1023.88103	0.59911	6540.00000	905.00000	4281.00000
1031.98710	0.21914	0.60376	6878.79036	877.64868	4501.04042	1030.07140	0.60210	6792.00000	876.00000	4438.00000
1038.18145	0.21563	0.60866	7153.19229	875.20158	4696.13664	1036.26177	0.60766	7075.00000	884.00000	4646.00000
1044.37581	0.21279	0.61265	7435.03734	854.54502	4886.28394	1042.45214	0.61077	7334.00000	852.00000	4811.00000
1050.57016	0.20859	0.61860	7778.63216	881.04291	5147.73626	1048.64251	0.61732	7678.00000	876.00000	5075.00000
1056.76452	0.20656	0.62150	8066.37003	871.22278	5343.06279	1054.83288	0.62039	7979.00000	877.00000	5283.00000
1062.95887	0.20299	0.62663	8367.94643	870.25694	5568.55478	1061.02325	0.62488	8268.00000	865.00000	5491.00000
1069.15323	0.20006	0.63087	8674.59951	877.92605	5796.48384	1067.21362	0.62993	8586.00000	882.00000	5735.00000
1075.34758	0.19794	0.63396	8958.19691	861.24829	5994.51032	1073.40399	0.63267	8863.00000	862.00000	5924.00000
1081.54194	0.19476	0.63862	9269.61857	868.88623	6233.63932	1079.59436	0.63729	9175.00000	868.00000	6162.00000
1087.73629	0.19169	0.64314	9599.77547	889.96693	6491.74748	1085.78473	0.64150	9485.00000	877.00000	6399.00000
1093.93065	0.18921	0.64683	9958.85840	903.23915	6760.52324	1091.97510	0.64624	9855.00000	911.00000	6691.00000
1100.12500	0.18860	0.64774	10287.04131	864.70017	6968.07599	1098.16547	0.64725	10175.00000	871.00000	6893.00000
1106.31935	0.18707	0.65002	10673.09117	870.26271	7242.26845	1104.35584	0.64935	10550.00000	868.00000	7155.00000
1112.51371	0.18561	0.65222	11054.17109	867.39097	7511.47287	1110.54621	0.65143	10934.00000	870.00000	7426.00000
1118.70806	0.18423	0.65429	11440.58269	866.80701	7785.05645	1116.73658	0.65381	11315.00000	864.00000	7697.00000
1124.90242	0.18316	0.65590	11853.47185	879.92340	8077.63871	1122.92695	0.65523	11719.00000	877.00000	7981.00000
1131.09677	0.18244	0.65699	12279.20991	877.48685	8368.15272	1129.11732	0.65705	12144.00000	880.00000	8281.00000
1137.29113	0.18333	0.65565	12658.45812	855.49825	8594.17460	1135.30769	0.65605	12547.00000	865.00000	8529.00000
1143.48548	0.18357	0.65528	13049.18681	852.30684	8844.65373	1141.49806	0.65525	12906.00000	845.00000	8748.00000
1149.67984	0.18339	0.65556	13533.98158	886.77209	9177.88937	1147.68843	0.65552	13382.00000	879.00000	9075.00000
1155.87419	0.18482	0.65340	13997.40073	876.37382	9449.50925	1153.87880	0.65463	13845.00000	885.00000	9369.00000
1162.06855	0.18781	0.64892	14503.46887	861.13988	9713.94676	1160.06917	0.65017	14335.00000	860.00000	9621.00000
1168.26290	0.18956	0.64631	15009.58309	885.01032	10013.83128	1166.25954	0.64704	14853.00000	877.00000	9920.00000
1174.45726	0.19160	0.64328	15471.50866	888.01740	10269.19938	1172.44991	0.64449	15322.00000	892.00000	10192.00000
1180.65161	0.19396	0.63979	15938.18293	858.48109	10506.33664	1178.64028	0.64068	15786.00000	869.00000	10426.00000
1186.84597	0.19430	0.63930	16436.20435	853.30650	10815.49985	1184.83065	0.63908	16267.00000	848.00000	10702.00000
1193.04032	0.19330	0.64077	16954.92806	876.34677	11178.95316	1191.02102	0.64030	16791.00000	872.00000	11065.00000
1199.23468	0.19199	0.64271	17462.35109	876.98642	11536.57383	1197.21139	0.64189	17291.00000	877.00000	11413.00000
1205.42903	0.18993	0.64576	17986.83670	869.01927	11922.96782	1203.40176	0.64475	17820.00000	874.00000	11800.00000
1211.62339	0.18793	0.64874	18479.84056	863.23699	12291.87004	1209.59213	0.64776	18318.00000	861.00000	12169.00000
1217.81774	0.18583	0.65188	19014.17361	874.89956	12699.55757	1215.78250	0.65081	18829.00000	873.00000	12559.00000
1224.01210	0.18341	0.65553	19594.72563	876.04482	13146.77855	1221.97287	0.65426	19406.00000	875.00000	12999.00000
1230.20645	0.18101	0.65916	20120.20026	872.48020	13559.79621	1228.16324	0.65807	19956.00000	876.00000	13432.00000
1236.40081	0.17851	0.66297	20649.23727	886.34799	13988.60231	1234.35361	0.66151	20461.00000	874.00000	13831.00000
1242.59516	0.17604	0.66674	21186.14180	892.43754	14423.00596	1240.54398	0.66581	21027.00000	904.00000	14302.00000
1248.78952	0.17457	0.66901	21639.43707	853.74756	14759.50383	1246.73435	0.66815	21481.00000	857.00000	14637.00000
1254.98387	0.17237	0.67240	22186.10389	887.90098	15208.87067	1252.92472	0.67118	21995.00000	874.00000	15050.00000
1261.17823	0.17070	0.67500	22744.98332	890.64324	15642.27449	1259.11509	0.67445	22568.00000	900.00000	15514.00000
1267.37258	0.16995	0.67616	23243.71070	844.15789	15989.76598	1265.30546	0.67567	23078.00000	857.00000	15871.00000
1273.56694	0.16810	0.67904	23813.43146	859.99157	16446.38031	1271.49583	0.67783	23605.00000	844.00000	16272.00000
1279.76129	0.16579	0.68267	24453.54449	898.95555	16979.04156	1277.68620	0.68161	24247.00000	895.00000	16812.00000
1285.95565	0.16434	0.68495	25039.29282	882.87107	17428.75652	1283.87657	0.68428	24843.00000	888.00000	17280.00000
1292.15000	0.16304	0.68701	25633.20976	874.48479	17884.06147	1290.06694	0.68626	25432.00000	877.00000	17728.00000
1298.34435	0.16163	0.68924	26275.57944	875.36170	18382.19574	1296.25731	0.68855	26049.00000	873.00000	18208.00000
1304.53871	0.16095	0.69032	26910.28272	864.72671	18844.39669	1302.44769	0.69015	26712.00000	874.00000	18706.00000
1310.73306	0.16074	0.69065	27539.76334	865.28161	19288.22290	1308.63806	0.69047	27304.00000	854.00000	19117.00000
1316.92742	0.16088	0.69043	28270.79252	884.98210	19792.92265	1314.82843	0.69077	28032.00000	890.00000	19639.00000
1323.12177	0.16217	0.68839	28955.06915	860.68820	20200.65167	1321.01880	0.68916	28719.00000	862.00000	20060.00000
1329.31613	0.16420	0.68517	29633.32179	868.03484	20577.24582	1327.20917	0.68650	29411.00000	869.00000	20463.00000
1335.51048	0.16733	0.68026	30302.79696	861.31771	20889.09696	1333.39954	0.68205	30064.00000	861.00000	20779.00000
1341.70484	0.17133	0.67402	31040.63710	883.35260	21209.85106	1339.58991	0.67635	30788.00000	873.00000	21106.00000
1347.89919	0.17656	0.66595	31710.62252	886.82909	21413.85842	1345.78028	0.66890	31498.00000	894.00000	21365.00000
1354.09355	0.18233	0.65716	32368.46417	858.22619	21565.50346	1351.97065	0.66010	32123.00000	864.00000	21498.00000
1360.28790	0.18736	0.64959	33079.41609	863.88248	21790.86555	1358.16102	0.65201	32852.00000	860.00000	21719.00000
1366.48226	0.19194	0.64278	33719.60962	862.84716	21982.32454	1364.35139	0.64517	33491.00000	867.00000	21915.00000
1372.67661	0.19667	0.63582	34419.13569	848.00380	22193.18693	1370.54176	0.63816	34178.00000	851.00000	22119.00000
1378.87097	0.20082	0.62977	34997.78982	865.89108	22361.17565	1376.73213	0.63172	34829.00000	855.00000	22317.00000
1385.06532	0.20492	0.62386	35282.55609	871.96034	22339.22435	1382.92250	0.62606	35216.00000	879.00000	22376.00000
1391.25968	0.20982	0.61685	35454.56849	868.59113	22202.85126	1389.11287	0.61934	35383.00000	859.00000	22241.00000
1397.45403	0.21646	0.60748	35619.60134	886.37628	21986.38941	1395.30324	0.61129	35583.00000	891.00000	22098.00000
1403.64839	0.22629	0.59390	35834.55471	865.31191	21633.49564	1401.49361	0.59894	35714.00000	866.00000	21738.00000
1409.84274	0.23872	0.57714	36489.35769	873.82043	21428.76785	1407.68398	0.58342	36214.00000	874.00000	21492.00000
1416.03710	0.25376	0.55750	37454.71523	877.22955	21269.17600	1413.87435	0.56451	37098.00000	872.00000	21322.00000
1422.23145	0.26993	0.53711	38501.95566	886.60375	21090.42613	1420.06472	0.54426	38137.00000	888.00000	21161.00000
1428.42581	0.28572	0.51794	39622.23895	874.12429	20943.18175	1426.25509	0.52433	39208.00000	877.00000	20975.00000
1434.62016	0.29922	0.50209	40761.26708	872.53526	20900.34837	1432.44546	0.50725	40388.00000	873.00000	20917.00000
1440.81452	0.31003	0.48974	41685.67119	872.92918	20860.75893	1438.63583	0.49369	41375.00000	872.00000	20868.00000
1447.00887	0.31795	0.48090	42697.97010	892.09592	20996.49176	1444.82620	0.48362	42303.00000	882.00000	20914.00000
1453.20323	0.32408	0.47415	43743.69350	881.19502	21204.47007	1451.01657	0.47650	43420.00000	897.00000	21159.00000
1459.39758	0.32873	0.46911	44616.30730	861.83262	21387.40963	1457.20694	0.47046	44284.00000	854.00000	21286.00000
1465.59194	0.33080	0.46687	45681.51347	893.65188	21803.73463	1463.39731	0.46754	45294.00000	891.00000	21651.00000
1471.78629	0.33199	0.46560	46691.44736	880.41136	22209.94752	1469.58768	0.46593	46358.00000	883.00000	22071.00000
1477.98065	0.33242	0.46513	47539.84378	864.96700	22574.87475	1475.77805	0.46525	47244.00000	875.00000	22448.00000
1484.17500	0.33195	0.46564	48453.02745	858.97393	23020.67118	1481.96842	0.46526	48107.00000	852.00000	22838.00000
1490.36935	0.33039	0.46732	49314.35954	885.82004	23517.17477	1488.15879	0.46668	49049.00000	881.00000	23360.00000
1496.56371	0.32860	0.46924	50001.49019	880.23876	23930.04305	1494.34916	0.46852	49741.00000	883.00000	23774.00000
1502.75806	0.32671	0.47129	50705.77350	864.52184	24354.22409	1500.53953	0.47057	50474.00000	872.00000	24213.00000
1508.95242	0.32452	0.47367	51385.78695	891.73536	24809.50604	1506.72990	0.47273	51118.00000	869.00000	24623.00000
1515.14677	0.32272	0.47564	52107.85403	893.71978	25253.21719	1512.92027	0.47516	51872.00000	917.00000	25129.00000
1521.34113	0.32137	0.47712	52815.89525	851.69957	25644.93615	1519.11064	0.47640	52530.00000	844.00000	25467.00000
1527.53548	0.31982	0.47882	53548.61369	896.26537	26107.36622	1525.30101	0.47844	53323.00000	892.00000	25977.00000
1533.72984	0.31936	0.47933	54149.95370	878.59624	26413.46150	1531.49138	0.47912	53910.00000	882.00000	26289.00000
1539.92419	0.31919	0.47952	54832.12801	868.84378	26745.18876	1537.68175	0.47960	54600.00000	876.00000	26642.00000
1546.11855	0.31961	0.47906	55451.13851	864.00141	27014.46364	1543.87212	0.47919	55220.00000	859.00000	26908.00000
1552.31290	0.32006	0.47857	56042.33834	881.37311	27279.50209	1550.06249	0.47882	55845.00000	879.00000	27198.00000
1558.50726	0.32073	0.47782	56662.34212	881.97129	27535.06605	1556.25286	0.47805	56406.00000	880.00000	27424.00000
1564.70161	0.32147	0.47701	57241.63462	881.81730	27765.88162	1562.44323	0.47739	57084.00000	885.00000	27714.00000
1570.89597	0.32235	0.47605	57652.97230	868.16681	27900.35625	1568.63360	0.47631	57470.00000	872.00000	27830.00000
1577.09032	0.32257	0.47581	58206.47218	874.43948	28153.59438	1574.82397	0.47584	58018.00000	869.00000	28063.00000
1583.28468	0.32271	0.47565	58673.40818	887.42953	28373.15693	1581.01434	0.47575	58502.00000	885.00000	28296.00000
1589.47903	0.32279	0.47557	59041.87130	888.83630	28544.44385	1587.20471	0.47552	58934.00000	888.00000	28490.00000
1595.67339	0.32250	0.47589	59358.10218	876.53006	28707.04436	1593.39508	0.47577	59218.00000	885.00000	28638.00000
1601.86774	0.32187	0.47657	59778.17203	883.72242	28951.14692	1599.58545	0.47622	59632.00000	871.00000	28854.00000
1608.06210	0.32111	0.47741	60103.05486	896.34115	29162.06000	1605.77582	0.47720	59993.00000	904.00000	29101.00000
1614.25645	0.32051	0.47807	60403.71328	879.81794	29336.24625	1611.96619	0.47773	60288.00000	876.00000	29259.00000
1620.45081	0.31983	0.47882	60606.54759	887.56155	29482.17278	1618.15656	0.47865	60563.00000	893.00000	29454.00000
1626.64516	0.31944	0.47925	60733.55595	878.59339	29563.83063	1624.34693	0.47902	60663.00000	874.00000	29514.00000
1632.83952	0.31897	0.47976	60986.21919	889.52033	29721.59588	1630.53730	0.47965	60896.00000	892.00000	29673.00000
1639.03387	0.31873	0.48003	61048.69415	866.62659	29755.66330	1636.72767	0.47987	61067.00000	874.00000	29759.00000
1645.22823	0.31806	0.48077	60863.78586	869.32764	29713.13775	1642.91804	0.48045	60949.00000	864.00000	29732.00000
1651.42258	0.31695	0.48200	59805.79968	899.77194	29292.39721	1649.10841	0.48147	60411.00000	887.00000	29546.00000
1657.61694	0.31592	0.48315	57584.63778	905.33477	28290.06232	1655.29878	0.48283	58428.00000	911.00000	28682.00000
1663.81129	0.31481	0.48438	56481.05190	890.63733	27818.19191	1661.48915	0.48374	56625.00000	891.00000	27852.00000
1670.00565	0.31247	0.48700	55048.67016	902.23167	27270.29619	1667.67952	0.48590	56028.00000	899.00000	27686.00000
1676.20000	0.30921	0.49067	51378.45954	875.98122	25658.96367	1673.86989	0.48914	52735.00000	893.00000	26251.00000
0.00000	0.00000	0.00000	0.00000	0.00000	0.00000	1680.06026	0.49425	48849.00000	859.00000	24578.00000
0.00000	0.00000	0.00000	0.00000	0.00000	0.00000	1686.25063	0.50147	44181.00000	908.00000	22608.00000
0.00000	0.00000	0.00000	0.00000	0.00000	0.00000	1692.44100	0.50147	44181.00000	908.00000	22608.00000
