'File 法国咖啡_3_2016一月28_1101.xls
'Part ID 法国咖啡_3
'Scan Created 2016/1/28 11:01:50
'Instrument S1-00205
'Version 1.5.7
'Integration Time 10100 s
'Number of Scans 50
'Units Absorbance
'Thermistor 48.39
Wavelength	Absorbance	Normalized	100%	dark	Raw 1	Native Wvl	Native Norm	Native 100%	Native dark	Native 1
908.10000	0.29245	0.50997	3514.15951	877.71219	2222.01849	906.26400	0.50865	3596.00000	879.00000	2261.00000
914.29435	0.29151	0.51109	3281.25113	863.65831	2099.34912	912.45437	0.51154	3339.00000	870.00000	2133.00000
920.48871	0.28783	0.51543	3227.40662	877.32414	2088.69411	918.64474	0.51211	3216.00000	863.00000	2068.00000
926.68306	0.28136	0.52316	3307.28228	905.48228	2161.87473	924.83511	0.52331	3291.00000	910.00000	2156.00000
932.87742	0.28375	0.52030	3382.42130	864.28145	2174.56736	931.02548	0.51961	3345.00000	872.00000	2157.00000
939.07177	0.27552	0.53025	3608.15965	881.02078	2327.14205	937.21585	0.52691	3528.00000	871.00000	2271.00000
945.26613	0.26989	0.53717	3846.64039	885.69520	2476.09329	943.40622	0.53610	3789.00000	894.00000	2446.00000
951.46048	0.26672	0.54110	4004.44998	860.87297	2561.94805	949.59659	0.53911	3954.00000	860.00000	2528.00000
957.65484	0.26013	0.54938	4209.47249	887.01493	2712.30967	955.78696	0.54721	4143.00000	881.00000	2666.00000
963.84919	0.25662	0.55383	4374.85740	871.56767	2811.66492	961.97733	0.55276	4341.00000	882.00000	2794.00000
970.04355	0.25037	0.56186	4520.56130	886.05989	2928.46019	968.16770	0.55822	4456.00000	866.00000	2870.00000
976.23790	0.24549	0.56821	4717.71427	911.39747	3073.78293	974.35807	0.56861	4679.00000	926.00000	3060.00000
982.43226	0.24611	0.56740	4843.76664	857.92770	3119.84620	980.54844	0.56565	4787.00000	857.00000	3080.00000
988.62661	0.23953	0.57607	5076.97721	894.34516	3303.59513	986.73881	0.57451	5011.00000	891.00000	3258.00000
994.82097	0.23896	0.57682	5297.39601	869.00992	3423.45054	992.92918	0.57652	5222.00000	877.00000	3382.00000
1001.01532	0.23559	0.58131	5554.06756	873.41459	3594.36352	999.11955	0.57932	5480.00000	866.00000	3539.00000
1007.20968	0.23177	0.58645	5827.05497	883.56657	3782.54829	1005.30992	0.58559	5731.00000	888.00000	3724.00000
1013.40403	0.22874	0.59055	6120.28754	870.80251	3970.93383	1011.50029	0.58837	6045.00000	868.00000	3914.00000
1019.59839	0.22233	0.59933	6348.68404	901.94795	4166.39876	1017.69066	0.59699	6270.00000	893.00000	4103.00000
1025.79274	0.21934	0.60347	6618.61076	896.05363	4349.34094	1023.88103	0.60266	6540.00000	905.00000	4301.00000
1031.98710	0.21673	0.60711	6878.79036	877.64868	4521.14522	1030.07140	0.60548	6792.00000	876.00000	4458.00000
1038.18145	0.21315	0.61214	7153.19229	875.20158	4718.05629	1036.26177	0.61105	7075.00000	884.00000	4667.00000
1044.37581	0.21017	0.61636	7435.03734	854.54502	4910.67972	1042.45214	0.61447	7334.00000	852.00000	4835.00000
1050.57016	0.20598	0.62234	7778.63216	881.04291	5173.50292	1048.64251	0.62099	7678.00000	876.00000	5100.00000
1056.76452	0.20378	0.62549	8066.37003	871.22278	5371.79878	1054.83288	0.62433	7979.00000	877.00000	5311.00000
1062.95887	0.20037	0.63042	8367.94643	870.25694	5596.97058	1061.02325	0.62880	8268.00000	865.00000	5520.00000
1069.15323	0.19769	0.63432	8674.59951	877.92605	5823.44930	1067.21362	0.63344	8586.00000	882.00000	5762.00000
1075.34758	0.19553	0.63749	8958.19691	861.24829	6023.08652	1073.40399	0.63617	8863.00000	862.00000	5952.00000
1081.54194	0.19245	0.64202	9269.61857	868.88623	6262.22058	1079.59436	0.64078	9175.00000	868.00000	6191.00000
1087.73629	0.18930	0.64669	9599.77547	889.96693	6522.71491	1085.78473	0.64487	9485.00000	877.00000	6428.00000
1093.93065	0.18666	0.65064	9958.85840	903.23915	6795.03299	1091.97510	0.65016	9855.00000	911.00000	6726.00000
1100.12500	0.18645	0.65096	10287.04131	864.70017	6998.40725	1098.16547	0.65058	10175.00000	871.00000	6924.00000
1106.31935	0.18493	0.65324	10673.09117	870.26271	7273.74574	1104.35584	0.65255	10550.00000	868.00000	7186.00000
1112.51371	0.18352	0.65536	11054.17109	867.39097	7543.45433	1110.54621	0.65461	10934.00000	870.00000	7458.00000
1118.70806	0.18206	0.65757	11440.58269	866.80701	7819.69169	1116.73658	0.65697	11315.00000	864.00000	7730.00000
1124.90242	0.18087	0.65938	11853.47185	879.92340	8115.70976	1122.92695	0.65873	11719.00000	877.00000	8019.00000
1131.09677	0.18042	0.66006	12279.20991	877.48685	8403.22147	1129.11732	0.66025	12144.00000	880.00000	8317.00000
1137.29113	0.18130	0.65872	12658.45812	855.49825	8630.39209	1135.30769	0.65905	12547.00000	865.00000	8564.00000
1143.48548	0.18145	0.65850	13049.18681	852.30684	8883.84370	1141.49806	0.65849	12906.00000	845.00000	8787.00000
1149.67984	0.18130	0.65871	13533.98158	886.77209	9217.75869	1147.68843	0.65864	13382.00000	879.00000	9114.00000
1155.87419	0.18270	0.65660	13997.40073	876.37382	9491.43505	1153.87880	0.65787	13845.00000	885.00000	9411.00000
1162.06855	0.18579	0.65195	14503.46887	861.13988	9755.32853	1160.06917	0.65321	14335.00000	860.00000	9662.00000
1168.26290	0.18740	0.64954	15009.58309	885.01032	10059.47103	1166.25954	0.65019	14853.00000	877.00000	9964.00000
1174.45726	0.18939	0.64657	15471.50866	888.01740	10317.16336	1172.44991	0.64782	15322.00000	892.00000	10240.00000
1180.65161	0.19185	0.64291	15938.18293	858.48109	10553.41818	1178.64028	0.64383	15786.00000	869.00000	10473.00000
1186.84597	0.19220	0.64240	16436.20435	853.30650	10863.74116	1184.83065	0.64219	16267.00000	848.00000	10750.00000
1193.04032	0.19129	0.64373	16954.92806	876.34677	11226.59839	1191.02102	0.64332	16791.00000	872.00000	11113.00000
1199.23468	0.18998	0.64568	17462.35109	876.98642	11585.89333	1197.21139	0.64482	17291.00000	877.00000	11461.00000
1205.42903	0.18789	0.64880	17986.83670	869.01927	11974.96929	1203.40176	0.64782	17820.00000	874.00000	11852.00000
1211.62339	0.18590	0.65178	18479.84056	863.23699	12345.50457	1209.59213	0.65074	18318.00000	861.00000	12221.00000
1217.81774	0.18376	0.65500	19014.17361	874.89956	12756.09421	1215.78250	0.65399	18829.00000	873.00000	12616.00000
1224.01210	0.18150	0.65842	19594.72563	876.04482	13200.83497	1221.97287	0.65717	19406.00000	875.00000	13053.00000
1230.20645	0.17907	0.66211	20120.20026	872.48020	13616.46196	1228.16324	0.66101	19956.00000	876.00000	13488.00000
1236.40081	0.17662	0.66585	20649.23727	886.34799	14045.56150	1234.35361	0.66442	20461.00000	874.00000	13888.00000
1242.59516	0.17413	0.66968	21186.14180	892.43754	14482.59877	1240.54398	0.66869	21027.00000	904.00000	14360.00000
1248.78952	0.17266	0.67195	21639.43707	853.74756	14820.72892	1246.73435	0.67116	21481.00000	857.00000	14699.00000
1254.98387	0.17064	0.67509	22186.10389	887.90098	15266.20419	1252.92472	0.67393	21995.00000	874.00000	15108.00000
1261.17823	0.16890	0.67780	22744.98332	890.64324	15703.35143	1259.11509	0.67717	22568.00000	900.00000	15573.00000
1267.37258	0.16814	0.67898	23243.71070	844.15789	16053.01018	1265.30546	0.67855	23078.00000	857.00000	15935.00000
1273.56694	0.16639	0.68173	23813.43146	859.99157	16508.21109	1271.49583	0.68051	23605.00000	844.00000	16333.00000
1279.76129	0.16402	0.68545	24453.54449	898.95555	17044.41906	1277.68620	0.68440	24247.00000	895.00000	16877.00000
1285.95565	0.16263	0.68766	25039.29282	882.87107	17494.31460	1283.87657	0.68700	24843.00000	888.00000	17345.00000
1292.15000	0.16133	0.68972	25633.20976	874.48479	17950.95357	1290.06694	0.68898	25432.00000	877.00000	17795.00000
1298.34435	0.16000	0.69184	26275.57944	875.36170	18448.24914	1296.25731	0.69117	26049.00000	873.00000	18274.00000
1304.53871	0.15932	0.69291	26910.28272	864.72671	18911.89791	1302.44769	0.69274	26712.00000	874.00000	18773.00000
1310.73306	0.15914	0.69320	27539.76334	865.28161	19356.15205	1308.63806	0.69304	27304.00000	854.00000	19185.00000
1316.92742	0.15931	0.69294	28270.79252	884.98210	19861.49332	1314.82843	0.69328	28032.00000	890.00000	19707.00000
1323.12177	0.16059	0.69089	28955.06915	860.68820	20271.00871	1321.01880	0.69168	28719.00000	862.00000	20130.00000
1329.31613	0.16267	0.68759	29633.32179	868.03484	20646.59006	1327.20917	0.68895	29411.00000	869.00000	20533.00000
1335.51048	0.16586	0.68256	30302.79696	861.31771	20956.78285	1333.39954	0.68438	30064.00000	861.00000	20847.00000
1341.70484	0.16987	0.67629	31040.63710	883.35260	21278.37769	1339.58991	0.67862	30788.00000	873.00000	21174.00000
1347.89919	0.17512	0.66817	31710.62252	886.82909	21482.28035	1345.78028	0.67115	31498.00000	894.00000	21434.00000
1354.09355	0.18093	0.65929	32368.46417	858.22619	21632.40743	1351.97065	0.66224	32123.00000	864.00000	21565.00000
1360.28790	0.18599	0.65165	33079.41609	863.88248	21857.31450	1358.16102	0.65410	32852.00000	860.00000	21786.00000
1366.48226	0.19061	0.64475	33719.60962	862.84716	22047.05762	1364.35139	0.64716	33491.00000	867.00000	21980.00000
1372.67661	0.19529	0.63783	34419.13569	848.00380	22260.80312	1370.54176	0.64014	34178.00000	851.00000	22185.00000
1378.87097	0.19946	0.63174	34997.78982	865.89108	22428.33278	1376.73213	0.63375	34829.00000	855.00000	22386.00000
1385.06532	0.20369	0.62562	35282.55609	871.96034	22399.78334	1382.92250	0.62786	35216.00000	879.00000	22438.00000
1391.25968	0.20871	0.61843	35454.56849	868.59113	22257.69649	1389.11287	0.62102	35383.00000	859.00000	22299.00000
1397.45403	0.21558	0.60873	35619.60134	886.37628	22029.60507	1395.30324	0.61265	35583.00000	891.00000	22145.00000
1403.64839	0.22564	0.59479	35834.55471	865.31191	21664.68628	1401.49361	0.59998	35714.00000	866.00000	21774.00000
1409.84274	0.23839	0.57758	36489.35769	873.82043	21444.39294	1407.68398	0.58401	36214.00000	874.00000	21513.00000
1416.03710	0.25368	0.55759	37454.71523	877.22955	21272.64103	1413.87435	0.56470	37098.00000	872.00000	21329.00000
1422.23145	0.27009	0.53692	38501.95566	886.60375	21082.99600	1420.06472	0.54418	38137.00000	888.00000	21158.00000
1428.42581	0.28609	0.51750	39622.23895	874.12429	20926.03319	1426.25509	0.52394	39208.00000	877.00000	20960.00000
1434.62016	0.29966	0.50158	40761.26708	872.53526	20880.19656	1432.44546	0.50677	40388.00000	873.00000	20898.00000
1440.81452	0.31051	0.48920	41685.67119	872.92918	20838.68440	1438.63583	0.49315	41375.00000	872.00000	20846.00000
1447.00887	0.31833	0.48047	42697.97010	892.09592	20978.70692	1444.82620	0.48314	42303.00000	882.00000	20894.00000
1453.20323	0.32436	0.47385	43743.69350	881.19502	21191.37571	1451.01657	0.47617	43420.00000	897.00000	21145.00000
1459.39758	0.32885	0.46898	44616.30730	861.83262	21381.91026	1457.20694	0.47023	44284.00000	854.00000	21276.00000
1465.59194	0.33070	0.46698	45681.51347	893.65188	21808.41353	1463.39731	0.46760	45294.00000	891.00000	21654.00000
1471.78629	0.33181	0.46579	46691.44736	880.41136	22218.77709	1469.58768	0.46606	46358.00000	883.00000	22077.00000
1477.98065	0.33199	0.46559	47539.84378	864.96700	22596.47009	1475.77805	0.46561	47244.00000	875.00000	22465.00000
1484.17500	0.33136	0.46627	48453.02745	858.97393	23050.66966	1481.96842	0.46586	48107.00000	852.00000	22866.00000
1490.36935	0.32971	0.46805	49314.35954	885.82004	23552.76786	1488.15879	0.46736	49049.00000	881.00000	23393.00000
1496.56371	0.32783	0.47008	50001.49019	880.23876	23971.01787	1494.34916	0.46934	49741.00000	883.00000	23814.00000
1502.75806	0.32586	0.47222	50705.77350	864.52184	24400.43359	1500.53953	0.47143	50474.00000	872.00000	24256.00000
1508.95242	0.32352	0.47477	51385.78695	891.73536	24864.81713	1506.72990	0.47378	51118.00000	869.00000	24676.00000
1515.14677	0.32165	0.47682	52107.85403	893.71978	25313.26096	1512.92027	0.47630	51872.00000	917.00000	25187.00000
1521.34113	0.32023	0.47838	52815.89525	851.69957	25710.56710	1519.11064	0.47763	52530.00000	844.00000	25531.00000
1527.53548	0.31863	0.48015	53548.61369	896.26537	26176.92156	1525.30101	0.47974	53323.00000	892.00000	26045.00000
1533.72984	0.31813	0.48070	54149.95370	878.59624	26486.12936	1531.49138	0.48048	53910.00000	882.00000	26361.00000
1539.92419	0.31797	0.48088	54832.12801	868.84378	26818.39620	1537.68175	0.48096	54600.00000	876.00000	26715.00000
1546.11855	0.31833	0.48047	55451.13851	864.00141	27091.76635	1543.87212	0.48057	55220.00000	859.00000	26983.00000
1552.31290	0.31872	0.48004	56042.33834	881.37311	27360.89468	1550.06249	0.48030	55845.00000	879.00000	27279.00000
1558.50726	0.31941	0.47929	56662.34212	881.97129	27616.73927	1556.25286	0.47951	56406.00000	880.00000	27505.00000
1564.70161	0.32014	0.47847	57241.63462	881.81730	27848.53459	1562.44323	0.47887	57084.00000	885.00000	27797.00000
1570.89597	0.32102	0.47751	57652.97230	868.16681	27983.30832	1568.63360	0.47776	57470.00000	872.00000	27912.00000
1577.09032	0.32122	0.47729	58206.47218	874.43948	28238.53849	1574.82397	0.47733	58018.00000	869.00000	28148.00000
1583.28468	0.32139	0.47711	58673.40818	887.42953	28457.40810	1581.01434	0.47720	58502.00000	885.00000	28380.00000
1589.47903	0.32138	0.47711	59041.87130	888.83630	28634.31583	1587.20471	0.47702	58934.00000	888.00000	28577.00000
1595.67339	0.32103	0.47750	59358.10218	876.53006	28801.34992	1593.39508	0.47738	59218.00000	885.00000	28732.00000
1601.86774	0.32044	0.47815	59778.17203	883.72242	29043.92002	1599.58545	0.47780	59632.00000	871.00000	28947.00000
1608.06210	0.31965	0.47902	60103.05486	896.34115	29257.53123	1605.77582	0.47879	59993.00000	904.00000	29195.00000
1614.25645	0.31901	0.47973	60403.71328	879.81794	29435.05416	1611.96619	0.47938	60288.00000	876.00000	29357.00000
1620.45081	0.31833	0.48047	60606.54759	887.56155	29580.83467	1618.15656	0.48031	60563.00000	893.00000	29553.00000
1626.64516	0.31796	0.48088	60733.55595	878.59339	29661.70282	1624.34693	0.48066	60663.00000	874.00000	29612.00000
1632.83952	0.31750	0.48139	60986.21919	889.52033	29819.69462	1630.53730	0.48128	60896.00000	892.00000	29771.00000
1639.03387	0.31727	0.48165	61048.69415	866.62659	29853.34406	1636.72767	0.48150	61067.00000	874.00000	29857.00000
1645.22823	0.31661	0.48238	60863.78586	869.32764	29809.72910	1642.91804	0.48207	60949.00000	864.00000	29829.00000
1651.42258	0.31557	0.48353	59805.79968	899.77194	29382.71860	1649.10841	0.48305	60411.00000	887.00000	29640.00000
1657.61694	0.31465	0.48456	57584.63778	905.33477	28369.85854	1655.29878	0.48427	58428.00000	911.00000	28765.00000
1663.81129	0.31354	0.48580	56481.05190	890.63733	27897.29726	1661.48915	0.48514	56625.00000	891.00000	27930.00000
1670.00565	0.31120	0.48843	55048.67016	902.23167	27347.70548	1667.67952	0.48735	56028.00000	899.00000	27766.00000
1676.20000	0.30801	0.49203	51378.45954	875.98122	25727.46067	1673.86989	0.49051	52735.00000	893.00000	26322.00000
0.00000	0.00000	0.00000	0.00000	0.00000	0.00000	1680.06026	0.49562	48849.00000	859.00000	24644.00000
0.00000	0.00000	0.00000	0.00000	0.00000	0.00000	1686.25063	0.50290	44181.00000	908.00000	22670.00000
0.00000	0.00000	0.00000	0.00000	0.00000	0.00000	1692.44100	0.50290	44181.00000	908.00000	22670.00000
