'File 法国咖啡_4_2016一月28_1101.xls
'Part ID 法国咖啡_4
'Scan Created 2016/1/28 11:01:54
'Instrument S1-00205
'Version 1.5.7
'Integration Time 10100 s
'Number of Scans 50
'Units Absorbance
'Thermistor 48.39
Wavelength	Absorbance	Normalized	100%	dark	Raw 1	Native Wvl	Native Norm	Native 100%	Native dark	Native 1
908.10000	0.29406	0.50809	3514.15951	877.71219	2217.18828	906.26400	0.50755	3596.00000	879.00000	2258.00000
914.29435	0.29369	0.50852	3281.25113	863.65831	2093.07732	912.45437	0.50871	3339.00000	870.00000	2126.00000
920.48871	0.28942	0.51354	3227.40662	877.32414	2084.26192	918.64474	0.51041	3216.00000	863.00000	2064.00000
926.68306	0.28315	0.52101	3307.28228	905.48228	2156.72916	924.83511	0.52079	3291.00000	910.00000	2150.00000
932.87742	0.28437	0.51956	3382.42130	864.28145	2172.65878	931.02548	0.51880	3345.00000	872.00000	2155.00000
939.07177	0.27699	0.52845	3608.15965	881.02078	2322.26217	937.21585	0.52540	3528.00000	871.00000	2267.00000
945.26613	0.27156	0.53510	3846.64039	885.69520	2469.97834	943.40622	0.53402	3789.00000	894.00000	2440.00000
951.46048	0.26825	0.53920	4004.44998	860.87297	2555.97403	949.59659	0.53717	3954.00000	860.00000	2522.00000
957.65484	0.26157	0.54756	4209.47249	887.01493	2706.29333	955.78696	0.54537	4143.00000	881.00000	2660.00000
963.84919	0.25845	0.55151	4374.85740	871.56767	2803.49574	961.97733	0.55074	4341.00000	882.00000	2787.00000
970.04355	0.25235	0.55930	4520.56130	886.05989	2919.19977	968.16770	0.55543	4456.00000	866.00000	2860.00000
976.23790	0.24699	0.56626	4717.71427	911.39747	3066.31350	974.35807	0.56675	4679.00000	926.00000	3053.00000
982.43226	0.24809	0.56482	4843.76664	857.92770	3109.60235	980.54844	0.56310	4787.00000	857.00000	3070.00000
988.62661	0.24104	0.57406	5076.97721	894.34516	3295.21570	986.73881	0.57233	5011.00000	891.00000	3249.00000
994.82097	0.24041	0.57490	5297.39601	869.00992	3414.95516	992.92918	0.57468	5222.00000	877.00000	3374.00000
1001.01532	0.23723	0.57912	5554.06756	873.41459	3584.10857	999.11955	0.57716	5480.00000	866.00000	3529.00000
1007.20968	0.23324	0.58447	5827.05497	883.56657	3772.76187	1005.30992	0.58352	5731.00000	888.00000	3714.00000
1013.40403	0.22993	0.58894	6120.28754	870.80251	3962.51017	1011.50029	0.58663	6045.00000	868.00000	3905.00000
1019.59839	0.22350	0.59772	6348.68404	901.94795	4157.60602	1017.69066	0.59550	6270.00000	893.00000	4095.00000
1025.79274	0.22075	0.60152	6618.61076	896.05363	4338.18005	1023.88103	0.60071	6540.00000	905.00000	4290.00000
1031.98710	0.21785	0.60555	6878.79036	877.64868	4511.75849	1030.07140	0.60379	6792.00000	876.00000	4448.00000
1038.18145	0.21423	0.61062	7153.19229	875.20158	4708.50043	1036.26177	0.60959	7075.00000	884.00000	4658.00000
1044.37581	0.21159	0.61435	7435.03734	854.54502	4897.42089	1042.45214	0.61262	7334.00000	852.00000	4823.00000
1050.57016	0.20726	0.62050	7778.63216	881.04291	5160.87772	1048.64251	0.61894	7678.00000	876.00000	5086.00000
1056.76452	0.20485	0.62396	8066.37003	871.22278	5360.68766	1054.83288	0.62292	7979.00000	877.00000	5301.00000
1062.95887	0.20196	0.62811	8367.94643	870.25694	5579.69760	1061.02325	0.62664	8268.00000	865.00000	5504.00000
1069.15323	0.19909	0.63228	8674.59951	877.92605	5807.52824	1067.21362	0.63123	8586.00000	882.00000	5745.00000
1075.34758	0.19673	0.63573	8958.19691	861.24829	6008.82528	1073.40399	0.63442	8863.00000	862.00000	5938.00000
1081.54194	0.19377	0.64007	9269.61857	868.88623	6245.83262	1079.59436	0.63886	9175.00000	868.00000	6175.00000
1087.73629	0.19067	0.64466	9599.77547	889.96693	6504.96188	1085.78473	0.64289	9485.00000	877.00000	6411.00000
1093.93065	0.18786	0.64884	9958.85840	903.23915	6778.73429	1091.97510	0.64814	9855.00000	911.00000	6708.00000
1100.12500	0.18743	0.64948	10287.04131	864.70017	6984.43594	1098.16547	0.64918	10175.00000	871.00000	6911.00000
1106.31935	0.18617	0.65137	10673.09117	870.26271	7255.45935	1104.35584	0.65069	10550.00000	868.00000	7168.00000
1112.51371	0.18449	0.65390	11054.17109	867.39097	7528.61139	1110.54621	0.65302	10934.00000	870.00000	7442.00000
1118.70806	0.18298	0.65617	11440.58269	866.80701	7804.96833	1116.73658	0.65563	11315.00000	864.00000	7716.00000
1124.90242	0.18205	0.65758	11853.47185	879.92340	8095.93048	1122.92695	0.65707	11719.00000	877.00000	8001.00000
1131.09677	0.18153	0.65837	12279.20991	877.48685	8383.93265	1129.11732	0.65838	12144.00000	880.00000	8296.00000
1137.29113	0.18214	0.65745	12658.45812	855.49825	8615.37850	1135.30769	0.65776	12547.00000	865.00000	8549.00000
1143.48548	0.18249	0.65692	13049.18681	852.30684	8864.62121	1141.49806	0.65699	12906.00000	845.00000	8769.00000
1149.67984	0.18232	0.65717	13533.98158	886.77209	9198.25787	1147.68843	0.65704	13382.00000	879.00000	9094.00000
1155.87419	0.18360	0.65525	13997.40073	876.37382	9473.70500	1153.87880	0.65648	13845.00000	885.00000	9393.00000
1162.06855	0.18668	0.65061	14503.46887	861.13988	9737.05807	1160.06917	0.65187	14335.00000	860.00000	9644.00000
1168.26290	0.18842	0.64800	15009.58309	885.01032	10037.74914	1166.25954	0.64876	14853.00000	877.00000	9944.00000
1174.45726	0.19034	0.64515	15471.50866	888.01740	10296.56648	1172.44991	0.64622	15322.00000	892.00000	10217.00000
1180.65161	0.19253	0.64190	15938.18293	858.48109	10538.07821	1178.64028	0.64282	15786.00000	869.00000	10458.00000
1186.84597	0.19304	0.64115	16436.20435	853.30650	10844.37373	1184.83065	0.64096	16267.00000	848.00000	10731.00000
1193.04032	0.19204	0.64263	16954.92806	876.34677	11208.86356	1191.02102	0.64219	16791.00000	872.00000	11095.00000
1199.23468	0.19072	0.64459	17462.35109	876.98642	11567.85892	1197.21139	0.64372	17291.00000	877.00000	11443.00000
1205.42903	0.18869	0.64760	17986.83670	869.01927	11954.43240	1203.40176	0.64670	17820.00000	874.00000	11833.00000
1211.62339	0.18683	0.65038	18479.84056	863.23699	12320.82046	1209.59213	0.64937	18318.00000	861.00000	12197.00000
1217.81774	0.18460	0.65373	19014.17361	874.89956	12732.95988	1215.78250	0.65265	18829.00000	873.00000	12592.00000
1224.01210	0.18229	0.65722	19594.72563	876.04482	13178.46364	1221.97287	0.65598	19406.00000	875.00000	13031.00000
1230.20645	0.17991	0.66084	20120.20026	872.48020	13591.99167	1228.16324	0.65975	19956.00000	876.00000	13464.00000
1236.40081	0.17739	0.66468	20649.23727	886.34799	14022.49047	1234.35361	0.66319	20461.00000	874.00000	13864.00000
1242.59516	0.17486	0.66855	21186.14180	892.43754	14459.73856	1240.54398	0.66759	21027.00000	904.00000	14338.00000
1248.78952	0.17343	0.67076	21639.43707	853.74756	14795.96301	1246.73435	0.66995	21481.00000	857.00000	14674.00000
1254.98387	0.17132	0.67403	22186.10389	887.90098	15243.53173	1252.92472	0.67284	21995.00000	874.00000	15085.00000
1261.17823	0.16958	0.67673	22744.98332	890.64324	15680.17428	1259.11509	0.67611	22568.00000	900.00000	15550.00000
1267.37258	0.16886	0.67787	23243.71070	844.15789	16028.01883	1265.30546	0.67747	23078.00000	857.00000	15911.00000
1273.56694	0.16715	0.68054	23813.43146	859.99157	16480.86383	1271.49583	0.67932	23605.00000	844.00000	16306.00000
1279.76129	0.16474	0.68432	24453.54449	898.95555	17017.68596	1277.68620	0.68324	24247.00000	895.00000	16850.00000
1285.95565	0.16335	0.68651	25039.29282	882.87107	17466.51735	1283.87657	0.68587	24843.00000	888.00000	17318.00000
1292.15000	0.16206	0.68856	25633.20976	874.48479	17922.41216	1290.06694	0.68780	25432.00000	877.00000	17766.00000
1298.34435	0.16066	0.69078	26275.57944	875.36170	18421.30542	1296.25731	0.69010	26049.00000	873.00000	18247.00000
1304.53871	0.16001	0.69181	26910.28272	864.72671	18883.27668	1302.44769	0.69166	26712.00000	874.00000	18745.00000
1310.73306	0.15987	0.69204	27539.76334	865.28161	19325.23558	1308.63806	0.69191	27304.00000	854.00000	19155.00000
1316.92742	0.16003	0.69178	28270.79252	884.98210	19829.87677	1314.82843	0.69210	28032.00000	890.00000	19675.00000
1323.12177	0.16125	0.68985	28955.06915	860.68820	20241.57865	1321.01880	0.69060	28719.00000	862.00000	20100.00000
1329.31613	0.16331	0.68658	29633.32179	868.03484	20617.63682	1327.20917	0.68793	29411.00000	869.00000	20504.00000
1335.51048	0.16649	0.68157	30302.79696	861.31771	20927.73797	1333.39954	0.68339	30064.00000	861.00000	20818.00000
1341.70484	0.17048	0.67533	31040.63710	883.35260	21249.51067	1339.58991	0.67765	30788.00000	873.00000	21145.00000
1347.89919	0.17574	0.66721	31710.62252	886.82909	21452.71230	1345.78028	0.67021	31498.00000	894.00000	21405.00000
1354.09355	0.18158	0.65829	32368.46417	858.22619	21600.94959	1351.97065	0.66125	32123.00000	864.00000	21534.00000
1360.28790	0.18660	0.65072	33079.41609	863.88248	21827.40594	1358.16102	0.65313	32852.00000	860.00000	21755.00000
1366.48226	0.19119	0.64389	33719.60962	862.84716	22018.93868	1364.35139	0.64630	33491.00000	867.00000	21952.00000
1372.67661	0.19597	0.63683	34419.13569	848.00380	22227.16958	1370.54176	0.63921	34178.00000	851.00000	22154.00000
1378.87097	0.20019	0.63068	34997.78982	865.89108	22392.14128	1376.73213	0.63266	34829.00000	855.00000	22349.00000
1385.06532	0.20435	0.62467	35282.55609	871.96034	22367.07699	1382.92250	0.62690	35216.00000	879.00000	22405.00000
1391.25968	0.20941	0.61744	35454.56849	868.59113	22223.27709	1389.11287	0.62003	35383.00000	859.00000	22265.00000
1397.45403	0.21626	0.60777	35619.60134	886.37628	21996.43709	1395.30324	0.61167	35583.00000	891.00000	22111.00000
1403.64839	0.22621	0.59401	35834.55471	865.31191	21637.40129	1401.49361	0.59912	35714.00000	866.00000	21744.00000
1409.84274	0.23881	0.57702	36489.35769	873.82043	21424.39191	1407.68398	0.58339	36214.00000	874.00000	21491.00000
1416.03710	0.25400	0.55718	37454.71523	877.22955	21257.60420	1413.87435	0.56424	37098.00000	872.00000	21312.00000
1422.23145	0.27029	0.53668	38501.95566	886.60375	21073.99768	1420.06472	0.54388	38137.00000	888.00000	21147.00000
1428.42581	0.28614	0.51744	39622.23895	874.12429	20923.75108	1426.25509	0.52381	39208.00000	877.00000	20955.00000
1434.62016	0.29954	0.50172	40761.26708	872.53526	20885.66017	1432.44546	0.50685	40388.00000	873.00000	20901.00000
1440.81452	0.31023	0.48952	41685.67119	872.92918	20851.63752	1438.63583	0.49340	41375.00000	872.00000	20856.00000
1447.00887	0.31790	0.48095	42697.97010	892.09592	20998.42036	1444.82620	0.48357	42303.00000	882.00000	20912.00000
1453.20323	0.32386	0.47440	43743.69350	881.19502	21214.94307	1451.01657	0.47668	43420.00000	897.00000	21167.00000
1459.39758	0.32829	0.46958	44616.30730	861.83262	21408.27050	1457.20694	0.47083	44284.00000	854.00000	21302.00000
1465.59194	0.33012	0.46761	45681.51347	893.65188	21836.80780	1463.39731	0.46821	45294.00000	891.00000	21681.00000
1471.78629	0.33123	0.46641	46691.44736	880.41136	22247.39869	1469.58768	0.46672	46358.00000	883.00000	22107.00000
1477.98065	0.33150	0.46612	47539.84378	864.96700	22621.10080	1475.77805	0.46615	47244.00000	875.00000	22490.00000
1484.17500	0.33080	0.46688	48453.02745	858.97393	23079.76365	1481.96842	0.46643	48107.00000	852.00000	22893.00000
1490.36935	0.32914	0.46866	49314.35954	885.82004	23582.48279	1488.15879	0.46801	49049.00000	881.00000	23424.00000
1496.56371	0.32731	0.47064	50001.49019	880.23876	23998.63974	1494.34916	0.46989	49741.00000	883.00000	23841.00000
1502.75806	0.32535	0.47277	50705.77350	864.52184	24427.74634	1500.53953	0.47202	50474.00000	872.00000	24285.00000
1508.95242	0.32311	0.47521	51385.78695	891.73536	24887.15717	1506.72990	0.47424	51118.00000	869.00000	24699.00000
1515.14677	0.32129	0.47721	52107.85403	893.71978	25333.56602	1512.92027	0.47673	51872.00000	917.00000	25209.00000
1521.34113	0.31993	0.47871	52815.89525	851.69957	25727.49337	1519.11064	0.47796	52530.00000	844.00000	25548.00000
1527.53548	0.31828	0.48053	53548.61369	896.26537	26197.02601	1525.30101	0.48010	53323.00000	892.00000	26064.00000
1533.72984	0.31782	0.48104	54149.95370	878.59624	26504.40309	1531.49138	0.48086	53910.00000	882.00000	26381.00000
1539.92419	0.31772	0.48115	54832.12801	868.84378	26833.02282	1537.68175	0.48124	54600.00000	876.00000	26730.00000
1546.11855	0.31809	0.48074	55451.13851	864.00141	27106.23801	1543.87212	0.48084	55220.00000	859.00000	26998.00000
1552.31290	0.31847	0.48032	56042.33834	881.37311	27376.13917	1550.06249	0.48055	55845.00000	879.00000	27293.00000
1558.50726	0.31915	0.47957	56662.34212	881.97129	27632.57460	1556.25286	0.47981	56406.00000	880.00000	27522.00000
1564.70161	0.31989	0.47875	57241.63462	881.81730	27864.28778	1562.44323	0.47912	57084.00000	885.00000	27811.00000
1570.89597	0.32070	0.47786	57652.97230	868.16681	28003.51357	1568.63360	0.47811	57470.00000	872.00000	27932.00000
1577.09032	0.32095	0.47759	58206.47218	874.43948	28255.57797	1574.82397	0.47765	58018.00000	869.00000	28166.00000
1583.28468	0.32110	0.47741	58673.40818	887.42953	28475.25310	1581.01434	0.47750	58502.00000	885.00000	28397.00000
1589.47903	0.32109	0.47743	59041.87130	888.83630	28652.81196	1587.20471	0.47735	58934.00000	888.00000	28596.00000
1595.67339	0.32081	0.47774	59358.10218	876.53006	28815.58717	1593.39508	0.47765	59218.00000	885.00000	28748.00000
1601.86774	0.32026	0.47834	59778.17203	883.72242	29055.59058	1599.58545	0.47800	59632.00000	871.00000	28959.00000
1608.06210	0.31946	0.47922	60103.05486	896.34115	29269.57080	1605.77582	0.47899	59993.00000	904.00000	29207.00000
1614.25645	0.31886	0.47989	60403.71328	879.81794	29444.60456	1611.96619	0.47957	60288.00000	876.00000	29368.00000
1620.45081	0.31824	0.48058	60606.54759	887.56155	29587.11541	1618.15656	0.48043	60563.00000	893.00000	29560.00000
1626.64516	0.31787	0.48098	60733.55595	878.59339	29667.60734	1624.34693	0.48076	60663.00000	874.00000	29618.00000
1632.83952	0.31740	0.48150	60986.21919	889.52033	29826.04564	1630.53730	0.48138	60896.00000	892.00000	29777.00000
1639.03387	0.31720	0.48172	61048.69415	866.62659	29857.77503	1636.72767	0.48160	61067.00000	874.00000	29863.00000
1645.22823	0.31661	0.48238	60863.78586	869.32764	29809.44757	1642.91804	0.48208	60949.00000	864.00000	29830.00000
1651.42258	0.31555	0.48356	59805.79968	899.77194	29384.42633	1649.10841	0.48305	60411.00000	887.00000	29640.00000
1657.61694	0.31460	0.48462	57584.63778	905.33477	28373.08955	1655.29878	0.48434	58428.00000	911.00000	28769.00000
1663.81129	0.31356	0.48578	56481.05190	890.63733	27895.87259	1661.48915	0.48514	56625.00000	891.00000	27930.00000
1670.00565	0.31117	0.48846	55048.67016	902.23167	27349.03117	1667.67952	0.48733	56028.00000	899.00000	27765.00000
1676.20000	0.30792	0.49213	51378.45954	875.98122	25732.38847	1673.86989	0.49061	52735.00000	893.00000	26327.00000
0.00000	0.00000	0.00000	0.00000	0.00000	0.00000	1680.06026	0.49569	48849.00000	859.00000	24647.00000
0.00000	0.00000	0.00000	0.00000	0.00000	0.00000	1686.25063	0.50297	44181.00000	908.00000	22673.00000
0.00000	0.00000	0.00000	0.00000	0.00000	0.00000	1692.44100	0.50297	44181.00000	908.00000	22673.00000
