'File ÑÎ_4_2016Ò»ÔÂ28_1050.xls
'Part ID ÑÎ_4
'Scan Created 2016/1/28 10:50:39
'Instrument S1-00205
'Version 1.5.7
'Integration Time 10100 µs
'Number of Scans 50
'Units Absorbance
'Thermistor 46.13
Wavelength	Absorbance	Normalized	100%	dark	Raw 1	Native Wvl	Native Norm	Native 100%	Native dark	Native 1
908.10000	0.15239	0.70406	3514.15951	877.71219	2733.87898	906.26400	0.70409	3596.00000	879.00000	2792.00000
914.29435	0.15362	0.70207	3281.25113	863.65831	2561.00774	912.45437	0.70312	3339.00000	870.00000	2606.00000
920.48871	0.15543	0.69915	3227.40662	877.32414	2520.38525	918.64474	0.69953	3216.00000	863.00000	2509.00000
926.68306	0.15654	0.69736	3307.28228	905.48228	2580.38671	924.83511	0.69845	3291.00000	910.00000	2573.00000
932.87742	0.15884	0.69368	3382.42130	864.28145	2611.07869	931.02548	0.69430	3345.00000	872.00000	2589.00000
939.07177	0.15879	0.69376	3608.15965	881.02078	2773.00502	937.21585	0.69364	3528.00000	871.00000	2714.00000
945.26613	0.15910	0.69326	3846.64039	885.69520	2938.36949	943.40622	0.69361	3789.00000	894.00000	2902.00000
951.46048	0.15939	0.69281	4004.44998	860.87297	3038.81960	949.59659	0.69263	3954.00000	860.00000	3003.00000
957.65484	0.15907	0.69332	4209.47249	887.01493	3190.48292	955.78696	0.69344	4143.00000	881.00000	3143.00000
963.84919	0.15944	0.69272	4374.85740	871.56767	3298.36905	961.97733	0.69269	4341.00000	882.00000	3278.00000
970.04355	0.15818	0.69473	4520.56130	886.05989	3411.15369	968.16770	0.69387	4456.00000	866.00000	3357.00000
976.23790	0.15838	0.69442	4717.71427	911.39747	3554.43688	974.35807	0.69544	4679.00000	926.00000	3536.00000
982.43226	0.15981	0.69213	4843.76664	857.92770	3616.80862	980.54844	0.69186	4787.00000	857.00000	3576.00000
988.62661	0.15843	0.69433	5076.97721	894.34516	3798.36990	986.73881	0.69417	5011.00000	891.00000	3751.00000
994.82097	0.15911	0.69324	5297.39601	869.00992	3939.01007	992.92918	0.69344	5222.00000	877.00000	3890.00000
1001.01532	0.15875	0.69382	5554.06756	873.41459	4120.94728	999.11955	0.69354	5480.00000	866.00000	4066.00000
1007.20968	0.15858	0.69410	5827.05497	883.56657	4314.77106	1005.30992	0.69420	5731.00000	888.00000	4250.00000
1013.40403	0.15836	0.69446	6120.28754	870.80251	4516.37747	1011.50029	0.69403	6045.00000	868.00000	4461.00000
1019.59839	0.15739	0.69600	6348.68404	901.94795	4692.86020	1017.69066	0.69574	6270.00000	893.00000	4634.00000
1025.79274	0.15764	0.69560	6618.61076	896.05363	4876.66354	1023.88103	0.69583	6540.00000	905.00000	4826.00000
1031.98710	0.15762	0.69563	6878.79036	877.64868	5052.30616	1030.07140	0.69540	6792.00000	876.00000	4990.00000
1038.18145	0.15735	0.69606	7153.19229	875.20158	5244.99814	1036.26177	0.69617	7075.00000	884.00000	5194.00000
1044.37581	0.15735	0.69607	7435.03734	854.54502	5435.09152	1042.45214	0.69577	7334.00000	852.00000	5362.00000
1050.57016	0.15671	0.69709	7778.63216	881.04291	5689.23229	1048.64251	0.69700	7678.00000	876.00000	5617.00000
1056.76452	0.15687	0.69684	8066.37003	871.22278	5885.13581	1054.83288	0.69685	7979.00000	877.00000	5826.00000
1062.95887	0.15656	0.69734	8367.94643	870.25694	6098.66488	1061.02325	0.69715	8268.00000	865.00000	6026.00000
1069.15323	0.15646	0.69750	8674.59951	877.92605	6316.06464	1067.21362	0.69756	8586.00000	882.00000	6256.00000
1075.34758	0.15657	0.69732	8958.19691	861.24829	6507.42599	1073.40399	0.69729	8863.00000	862.00000	6441.00000
1081.54194	0.15630	0.69775	9269.61857	868.88623	6730.46704	1079.59436	0.69760	9175.00000	868.00000	6663.00000
1087.73629	0.15583	0.69850	9599.77547	889.96693	6973.81984	1085.78473	0.69819	9485.00000	877.00000	6887.00000
1093.93065	0.15569	0.69873	9958.85840	903.23915	7230.56928	1091.97510	0.69890	9855.00000	911.00000	7162.00000
1100.12500	0.15614	0.69801	10287.04131	864.70017	7441.61146	1098.16547	0.69809	10175.00000	871.00000	7366.00000
1106.31935	0.15611	0.69805	10673.09117	870.26271	7713.09331	1104.35584	0.69810	10550.00000	868.00000	7627.00000
1112.51371	0.15627	0.69780	11054.17109	867.39097	7975.74733	1110.54621	0.69783	10934.00000	870.00000	7893.00000
1118.70806	0.15639	0.69761	11440.58269	866.80701	8243.11970	1116.73658	0.69773	11315.00000	864.00000	8156.00000
1124.90242	0.15650	0.69743	11853.47185	879.92340	8533.22406	1122.92695	0.69738	11719.00000	877.00000	8438.00000
1131.09677	0.15653	0.69739	12279.20991	877.48685	8828.84472	1129.11732	0.69753	12144.00000	880.00000	8737.00000
1137.29113	0.15706	0.69654	12658.45812	855.49825	9076.71969	1135.30769	0.69680	12547.00000	865.00000	9005.00000
1143.48548	0.15739	0.69600	13049.18681	852.30684	9341.31854	1141.49806	0.69613	12906.00000	845.00000	9241.00000
1149.67984	0.15753	0.69578	13533.98158	886.77209	9686.49221	1147.68843	0.69583	13382.00000	879.00000	9579.00000
1155.87419	0.15786	0.69525	13997.40073	876.37382	9998.76685	1153.87880	0.69552	13845.00000	885.00000	9899.00000
1162.06855	0.15836	0.69444	14503.46887	861.13988	10334.97246	1160.06917	0.69462	14335.00000	860.00000	10220.00000
1168.26290	0.15832	0.69451	15009.58309	885.01032	10694.69059	1166.25954	0.69440	14853.00000	877.00000	10582.00000
1174.45726	0.15818	0.69473	15471.50866	888.01740	11019.65379	1172.44991	0.69473	15322.00000	892.00000	10917.00000
1180.65161	0.15823	0.69466	15938.18293	858.48109	11333.70396	1178.64028	0.69464	15786.00000	869.00000	11231.00000
1186.84597	0.15801	0.69502	16436.20435	853.30650	11683.69301	1184.83065	0.69486	16267.00000	848.00000	11562.00000
1193.04032	0.15784	0.69527	16954.92806	876.34677	12055.32027	1191.02102	0.69527	16791.00000	872.00000	11940.00000
1199.23468	0.15778	0.69538	17462.35109	876.98642	12410.11717	1197.21139	0.69526	17291.00000	877.00000	12289.00000
1205.42903	0.15748	0.69586	17986.83670	869.01927	12780.56454	1203.40176	0.69574	17820.00000	874.00000	12664.00000
1211.62339	0.15735	0.69606	18479.84056	863.23699	13125.48379	1209.59213	0.69600	18318.00000	861.00000	13011.00000
1217.81774	0.15723	0.69626	19014.17361	874.89956	13504.57800	1215.78250	0.69620	18829.00000	873.00000	13374.00000
1224.01210	0.15709	0.69649	19594.72563	876.04482	13913.42142	1221.97287	0.69640	19406.00000	875.00000	13780.00000
1230.20645	0.15712	0.69643	20120.20026	872.48020	14277.19714	1228.16324	0.69654	19956.00000	876.00000	14166.00000
1236.40081	0.15706	0.69653	20649.23727	886.34799	14651.82996	1234.35361	0.69633	20461.00000	874.00000	14513.00000
1242.59516	0.15668	0.69714	21186.14180	892.43754	15039.96541	1240.54398	0.69706	21027.00000	904.00000	14931.00000
1248.78952	0.15674	0.69705	21639.43707	853.74756	15342.41898	1246.73435	0.69705	21481.00000	857.00000	15233.00000
1254.98387	0.15640	0.69759	22186.10389	887.90098	15745.46387	1252.92472	0.69732	21995.00000	874.00000	15602.00000
1261.17823	0.15608	0.69810	22744.98332	890.64324	16147.16871	1259.11509	0.69808	22568.00000	900.00000	16026.00000
1267.37258	0.15624	0.69784	23243.71070	844.15789	16475.46472	1265.30546	0.69790	23078.00000	857.00000	16365.00000
1273.56694	0.15607	0.69812	23813.43146	859.99157	16884.20853	1271.49583	0.69795	23605.00000	844.00000	16730.00000
1279.76129	0.15572	0.69868	24453.54449	898.95555	17356.15691	1277.68620	0.69853	24247.00000	895.00000	17207.00000
1285.95565	0.15572	0.69868	25039.29282	882.87107	17760.34412	1283.87657	0.69877	24843.00000	888.00000	17627.00000
1292.15000	0.15590	0.69839	25633.20976	874.48479	18165.83016	1290.06694	0.69843	25432.00000	877.00000	18027.00000
1298.34435	0.15580	0.69856	26275.57944	875.36170	18618.96558	1296.25731	0.69848	26049.00000	873.00000	18458.00000
1304.53871	0.15586	0.69846	26910.28272	864.72671	19056.44301	1302.44769	0.69858	26712.00000	874.00000	18924.00000
1310.73306	0.15610	0.69807	27539.76334	865.28161	19486.08730	1308.63806	0.69815	27304.00000	854.00000	19320.00000
1316.92742	0.15627	0.69781	28270.79252	884.98210	19994.89634	1314.82843	0.69796	28032.00000	890.00000	19834.00000
1323.12177	0.15660	0.69726	28955.06915	860.68820	20449.84754	1321.01880	0.69742	28719.00000	862.00000	20290.00000
1329.31613	0.15696	0.69669	29633.32179	868.03484	20908.40647	1327.20917	0.69694	29411.00000	869.00000	20761.00000
1335.51048	0.15747	0.69587	30302.79696	861.31771	21348.85052	1333.39954	0.69613	30064.00000	861.00000	21190.00000
1341.70484	0.15789	0.69521	31040.63710	883.35260	21848.85840	1339.58991	0.69544	30788.00000	873.00000	21677.00000
1347.89919	0.15842	0.69435	31710.62252	886.82909	22289.32672	1345.78028	0.69468	31498.00000	894.00000	22154.00000
1354.09355	0.15898	0.69346	32368.46417	858.22619	22709.18270	1351.97065	0.69372	32123.00000	864.00000	22549.00000
1360.28790	0.15947	0.69268	33079.41609	863.88248	23179.04829	1358.16102	0.69299	32852.00000	860.00000	23030.00000
1366.48226	0.16048	0.69107	33719.60962	862.84716	23569.25178	1364.35139	0.69179	33491.00000	867.00000	23436.00000
1372.67661	0.16261	0.68768	34419.13569	848.00380	23934.24628	1370.54176	0.68908	34178.00000	851.00000	23816.00000
1378.87097	0.16539	0.68329	34997.78982	865.89108	24187.96644	1376.73213	0.68476	34829.00000	855.00000	24119.00000
1385.06532	0.16790	0.67936	35282.55609	871.96034	24249.15668	1382.92250	0.68069	35216.00000	879.00000	24252.00000
1391.25968	0.17041	0.67545	35454.56849	868.59113	24229.65545	1389.11287	0.67683	35383.00000	859.00000	24226.00000
1397.45403	0.17363	0.67046	35619.60134	886.37628	24173.61496	1395.30324	0.67243	35583.00000	891.00000	24219.00000
1403.64839	0.17778	0.66408	35834.55471	865.31191	24087.66607	1401.49361	0.66632	35714.00000	866.00000	24086.00000
1409.84274	0.18213	0.65746	36489.35769	873.82043	24289.62138	1407.68398	0.65982	36214.00000	874.00000	24192.00000
1416.03710	0.18631	0.65117	37454.71523	877.22955	24695.29154	1413.87435	0.65320	37098.00000	872.00000	24535.00000
1422.23145	0.18957	0.64630	38501.95566	886.60375	25197.34324	1420.06472	0.64786	38137.00000	888.00000	25020.00000
1428.42581	0.19190	0.64283	39622.23895	874.12429	25782.72219	1426.25509	0.64387	39208.00000	877.00000	25557.00000
1434.62016	0.19333	0.64072	40761.26708	872.53526	26429.93330	1432.44546	0.64135	40388.00000	873.00000	26216.00000
1440.81452	0.19415	0.63952	41685.67119	872.92918	26973.31303	1438.63583	0.63983	41375.00000	872.00000	26787.00000
1447.00887	0.19413	0.63955	42697.97010	892.09592	27628.94560	1444.82620	0.63936	42303.00000	882.00000	27365.00000
1453.20323	0.19357	0.64037	43743.69350	881.19502	28329.10012	1451.01657	0.64010	43420.00000	897.00000	28116.00000
1459.39758	0.19267	0.64170	44616.30730	861.83262	28939.03559	1457.20694	0.64105	44284.00000	854.00000	28695.00000
1465.59194	0.19108	0.64406	45681.51347	893.65188	29739.54185	1463.39731	0.64320	45294.00000	891.00000	29451.00000
1471.78629	0.18933	0.64665	46691.44736	880.41136	30503.88954	1469.58768	0.64567	46358.00000	883.00000	30245.00000
1477.98065	0.18730	0.64968	47539.84378	864.96700	31188.73770	1475.77805	0.64856	47244.00000	875.00000	30948.00000
1484.17500	0.18497	0.65318	48453.02745	858.97393	31946.33603	1481.96842	0.65187	48107.00000	852.00000	31656.00000
1490.36935	0.18253	0.65686	49314.35954	885.82004	32696.57781	1488.15879	0.65558	49049.00000	881.00000	32459.00000
1496.56371	0.18024	0.66033	50001.49019	880.23876	33316.65449	1494.34916	0.65909	49741.00000	883.00000	33085.00000
1502.75806	0.17794	0.66384	50705.77350	864.52184	33950.86234	1500.53953	0.66257	50474.00000	872.00000	33737.00000
1508.95242	0.17567	0.66731	51385.78695	891.73536	34586.88885	1506.72990	0.66608	51118.00000	869.00000	34339.00000
1515.14677	0.17377	0.67024	52107.85403	893.71978	35219.55349	1512.92027	0.66930	51872.00000	917.00000	35021.00000
1521.34113	0.17209	0.67283	52815.89525	851.69957	35814.98000	1519.11064	0.67185	52530.00000	844.00000	35569.00000
1527.53548	0.17044	0.67539	53548.61369	896.26537	36457.11284	1525.30101	0.67456	53323.00000	892.00000	36260.00000
1533.72984	0.16916	0.67740	54149.95370	878.59624	36964.65637	1531.49138	0.67668	53910.00000	882.00000	36765.00000
1539.92419	0.16798	0.67923	54832.12801	868.84378	37522.49942	1537.68175	0.67862	54600.00000	876.00000	37334.00000
1546.11855	0.16687	0.68097	55451.13851	864.00141	38036.43663	1543.87212	0.68030	55220.00000	859.00000	37841.00000
1552.31290	0.16574	0.68274	56042.33834	881.37311	38542.00689	1550.06249	0.68215	55845.00000	879.00000	38374.00000
1558.50726	0.16473	0.68434	56662.34212	881.97129	39054.96626	1556.25286	0.68373	56406.00000	880.00000	38845.00000
1564.70161	0.16383	0.68576	57241.63462	881.81730	39531.13659	1562.44323	0.68533	57084.00000	885.00000	39400.00000
1570.89597	0.16310	0.68691	57652.97230	868.16681	39874.23387	1568.63360	0.68644	57470.00000	872.00000	39723.00000
1577.09032	0.16227	0.68822	58206.47218	874.43948	40331.60416	1574.82397	0.68778	58018.00000	869.00000	40175.00000
1583.28468	0.16164	0.68922	58673.40818	887.42953	40714.80946	1581.01434	0.68888	58502.00000	885.00000	40576.00000
1589.47903	0.16104	0.69017	59041.87130	888.83630	41024.56546	1587.20471	0.68981	58934.00000	888.00000	40929.00000
1595.67339	0.16050	0.69104	59358.10218	876.53006	41289.63633	1593.39508	0.69076	59218.00000	885.00000	41179.00000
1601.86774	0.16002	0.69180	59778.17203	883.72242	41626.65304	1599.58545	0.69150	59632.00000	871.00000	41504.00000
1608.06210	0.15956	0.69253	60103.05486	896.34115	41898.51682	1605.77582	0.69229	59993.00000	904.00000	41811.00000
1614.25645	0.15915	0.69319	60403.71328	879.81794	42140.93924	1611.96619	0.69291	60288.00000	876.00000	42043.00000
1620.45081	0.15874	0.69384	60606.54759	887.56155	42322.94664	1618.15656	0.69365	60563.00000	893.00000	42283.00000
1626.64516	0.15840	0.69439	60733.55595	878.59339	42441.34779	1624.34693	0.69414	60663.00000	874.00000	42376.00000
1632.83952	0.15797	0.69508	60986.21919	889.52033	42661.31903	1630.53730	0.69485	60896.00000	892.00000	42586.00000
1639.03387	0.15764	0.69560	61048.69415	866.62659	42729.05791	1636.72767	0.69540	61067.00000	874.00000	42732.00000
1645.22823	0.15724	0.69624	60863.78586	869.32764	42639.92471	1642.91804	0.69598	60949.00000	864.00000	42682.00000
1651.42258	0.15674	0.69704	59805.79968	899.77194	41959.79175	1649.10841	0.69673	60411.00000	887.00000	42359.00000
1657.61694	0.15626	0.69782	57584.63778	905.33477	40457.20342	1655.29878	0.69755	58428.00000	911.00000	41032.00000
1663.81129	0.15540	0.69919	56481.05190	890.63733	39759.80344	1661.48915	0.69850	56625.00000	891.00000	39821.00000
1670.00565	0.15389	0.70163	55048.67016	902.23167	38892.22909	1667.67952	0.70068	56028.00000	899.00000	39527.00000
1676.20000	0.15198	0.70472	51378.45954	875.98122	36468.19248	1673.86989	0.70341	52735.00000	893.00000	37359.00000
0.00000	0.00000	0.00000	0.00000	0.00000	0.00000	1680.06026	0.70763	48849.00000	859.00000	34818.00000
0.00000	0.00000	0.00000	0.00000	0.00000	0.00000	1686.25063	0.71287	44181.00000	908.00000	31756.00000
0.00000	0.00000	0.00000	0.00000	0.00000	0.00000	1692.44100	0.71287	44181.00000	908.00000	31756.00000
