'File ÑÎ_1_2016Ò»ÔÂ28_1050.xls
'Part ID ÑÎ_1
'Scan Created 2016/1/28 10:50:25
'Instrument S1-00205
'Version 1.5.7
'Integration Time 10100 µs
'Number of Scans 50
'Units Absorbance
'Thermistor 45.81
Wavelength	Absorbance	Normalized	100%	dark	Raw 1	Native Wvl	Native Norm	Native 100%	Native dark	Native 1
908.10000	0.14916	0.70932	3514.15951	877.71219	2747.76930	906.26400	0.70961	3596.00000	879.00000	2807.00000
914.29435	0.15117	0.70605	3281.25113	863.65831	2570.63864	912.45437	0.70757	3339.00000	870.00000	2617.00000
920.48871	0.15312	0.70288	3227.40662	877.32414	2529.15696	918.64474	0.70293	3216.00000	863.00000	2517.00000
926.68306	0.15324	0.70269	3307.28228	905.48228	2593.16558	924.83511	0.70349	3291.00000	910.00000	2585.00000
932.87742	0.15566	0.69878	3382.42130	864.28145	2623.91768	931.02548	0.69956	3345.00000	872.00000	2602.00000
939.07177	0.15568	0.69874	3608.15965	881.02078	2786.60685	937.21585	0.69853	3528.00000	871.00000	2727.00000
945.26613	0.15549	0.69905	3846.64039	885.69520	2955.52520	943.40622	0.69914	3789.00000	894.00000	2918.00000
951.46048	0.15602	0.69820	4004.44998	860.87297	3055.71780	949.59659	0.69845	3954.00000	860.00000	3021.00000
957.65484	0.15601	0.69821	4209.47249	887.01493	3206.82791	955.78696	0.69804	4143.00000	881.00000	3158.00000
963.84919	0.15600	0.69824	4374.85740	871.56767	3317.61934	961.97733	0.69847	4341.00000	882.00000	3298.00000
970.04355	0.15535	0.69928	4520.56130	886.05989	3427.74236	968.16770	0.69833	4456.00000	866.00000	3373.00000
976.23790	0.15469	0.70033	4717.71427	911.39747	3576.91976	974.35807	0.70104	4679.00000	926.00000	3557.00000
982.43226	0.15602	0.69821	4843.76664	857.92770	3641.02080	980.54844	0.69796	4787.00000	857.00000	3600.00000
988.62661	0.15458	0.70051	5076.97721	894.34516	3824.24679	986.73881	0.70024	5011.00000	891.00000	3776.00000
994.82097	0.15511	0.69966	5297.39601	869.00992	3967.39448	992.92918	0.69988	5222.00000	877.00000	3918.00000
1001.01532	0.15478	0.70019	5554.06756	873.41459	4150.78244	999.11955	0.69983	5480.00000	866.00000	4095.00000
1007.20968	0.15422	0.70110	5827.05497	883.56657	4349.40044	1005.30992	0.70101	5731.00000	888.00000	4283.00000
1013.40403	0.15398	0.70148	6120.28754	870.80251	4553.24251	1011.50029	0.70118	6045.00000	868.00000	4498.00000
1019.59839	0.15322	0.70271	6348.68404	901.94795	4729.40928	1017.69066	0.70244	6270.00000	893.00000	4670.00000
1025.79274	0.15308	0.70294	6618.61076	896.05363	4918.68832	1023.88103	0.70293	6540.00000	905.00000	4866.00000
1031.98710	0.15298	0.70310	6878.79036	877.64868	5097.07289	1030.07140	0.70301	6792.00000	876.00000	5035.00000
1038.18145	0.15288	0.70326	7153.19229	875.20158	5290.25127	1036.26177	0.70328	7075.00000	884.00000	5238.00000
1044.37581	0.15269	0.70357	7435.03734	854.54502	5484.43759	1042.45214	0.70333	7334.00000	852.00000	5411.00000
1050.57016	0.15224	0.70431	7778.63216	881.04291	5739.04647	1048.64251	0.70420	7678.00000	876.00000	5666.00000
1056.76452	0.15239	0.70406	8066.37003	871.22278	5936.99614	1054.83288	0.70417	7979.00000	877.00000	5878.00000
1062.95887	0.15229	0.70423	8367.94643	870.25694	6150.38664	1061.02325	0.70404	8268.00000	865.00000	6077.00000
1069.15323	0.15198	0.70473	8674.59951	877.92605	6372.44873	1067.21362	0.70470	8586.00000	882.00000	6311.00000
1075.34758	0.15196	0.70476	8958.19691	861.24829	6567.65709	1073.40399	0.70466	8863.00000	862.00000	6500.00000
1081.54194	0.15173	0.70512	9269.61857	868.88623	6792.39110	1079.59436	0.70507	9175.00000	868.00000	6725.00000
1087.73629	0.15134	0.70576	9599.77547	889.96693	7037.08318	1085.78473	0.70539	9485.00000	877.00000	6949.00000
1093.93065	0.15105	0.70624	9958.85840	903.23915	7298.56286	1091.97510	0.70640	9855.00000	911.00000	7229.00000
1100.12500	0.15157	0.70539	10287.04131	864.70017	7511.23392	1098.16547	0.70550	10175.00000	871.00000	7435.00000
1106.31935	0.15147	0.70556	10673.09117	870.26271	7786.69237	1104.35584	0.70554	10550.00000	868.00000	7699.00000
1112.51371	0.15153	0.70546	11054.17109	867.39097	8053.81744	1110.54621	0.70548	10934.00000	870.00000	7970.00000
1118.70806	0.15163	0.70529	11440.58269	866.80701	8324.35764	1116.73658	0.70539	11315.00000	864.00000	8236.00000
1124.90242	0.15171	0.70517	11853.47185	879.92340	8618.12963	1122.92695	0.70513	11719.00000	877.00000	8522.00000
1131.09677	0.15171	0.70516	12279.20991	877.48685	8917.47886	1129.11732	0.70526	12144.00000	880.00000	8824.00000
1137.29113	0.15219	0.70439	12658.45812	855.49825	9169.36825	1135.30769	0.70467	12547.00000	865.00000	9097.00000
1143.48548	0.15263	0.70367	13049.18681	852.30684	9434.82076	1141.49806	0.70384	12906.00000	845.00000	9334.00000
1149.67984	0.15272	0.70352	13533.98158	886.77209	9784.34218	1147.68843	0.70351	13382.00000	879.00000	9675.00000
1155.87419	0.15295	0.70315	13997.40073	876.37382	10102.35020	1153.87880	0.70340	13845.00000	885.00000	10001.00000
1162.06855	0.15338	0.70245	14503.46887	861.13988	10444.21579	1160.06917	0.70256	14335.00000	860.00000	10327.00000
1168.26290	0.15324	0.70269	15009.58309	885.01032	10810.18440	1166.25954	0.70256	14853.00000	877.00000	10696.00000
1174.45726	0.15318	0.70278	15471.50866	888.01740	11136.98478	1172.44991	0.70284	15322.00000	892.00000	11034.00000
1180.65161	0.15325	0.70267	15938.18293	858.48109	11454.60717	1178.64028	0.70262	15786.00000	869.00000	11350.00000
1186.84597	0.15299	0.70310	16436.20435	853.30650	11809.57434	1184.83065	0.70296	16267.00000	848.00000	11687.00000
1193.04032	0.15280	0.70340	16954.92806	876.34677	12186.00575	1191.02102	0.70331	16791.00000	872.00000	12068.00000
1199.23468	0.15268	0.70360	17462.35109	876.98642	12546.36655	1197.21139	0.70355	17291.00000	877.00000	12425.00000
1205.42903	0.15256	0.70379	17986.83670	869.01927	12916.38134	1203.40176	0.70371	17820.00000	874.00000	12799.00000
1211.62339	0.15235	0.70413	18479.84056	863.23699	13267.65689	1209.59213	0.70402	18318.00000	861.00000	13151.00000
1217.81774	0.15218	0.70440	19014.17361	874.89956	13652.11415	1215.78250	0.70433	18829.00000	873.00000	13520.00000
1224.01210	0.15209	0.70455	19594.72563	876.04482	14064.38735	1221.97287	0.70450	19406.00000	875.00000	13930.00000
1230.20645	0.15207	0.70457	20120.20026	872.48020	14433.84919	1228.16324	0.70461	19956.00000	876.00000	14320.00000
1236.40081	0.15194	0.70479	20649.23727	886.34799	14815.08535	1234.35361	0.70460	20461.00000	874.00000	14675.00000
1242.59516	0.15166	0.70525	21186.14180	892.43754	15204.49330	1240.54398	0.70521	21027.00000	904.00000	15095.00000
1248.78952	0.15170	0.70518	21639.43707	853.74756	15511.46368	1246.73435	0.70515	21481.00000	857.00000	15400.00000
1254.98387	0.15127	0.70588	22186.10389	887.90098	15921.85962	1252.92472	0.70555	21995.00000	874.00000	15776.00000
1261.17823	0.15096	0.70638	22744.98332	890.64324	16328.10540	1259.11509	0.70639	22568.00000	900.00000	16206.00000
1267.37258	0.15113	0.70611	23243.71070	844.15789	16660.61779	1265.30546	0.70613	23078.00000	857.00000	16548.00000
1273.56694	0.15085	0.70657	23813.43146	859.99157	17078.13201	1271.49583	0.70634	23605.00000	844.00000	16921.00000
1279.76129	0.15051	0.70712	24453.54449	898.95555	17554.87575	1277.68620	0.70701	24247.00000	895.00000	17405.00000
1285.95565	0.15056	0.70704	25039.29282	882.87107	17962.32429	1283.87657	0.70712	24843.00000	888.00000	17827.00000
1292.15000	0.15063	0.70692	25633.20976	874.48479	18377.03640	1290.06694	0.70690	25432.00000	877.00000	18235.00000
1298.34435	0.15057	0.70702	26275.57944	875.36170	18833.72861	1296.25731	0.70702	26049.00000	873.00000	18673.00000
1304.53871	0.15068	0.70683	26910.28272	864.72671	19274.53086	1302.44769	0.70690	26712.00000	874.00000	19139.00000
1310.73306	0.15086	0.70654	27539.76334	865.28161	19711.79820	1308.63806	0.70665	27304.00000	854.00000	19545.00000
1316.92742	0.15110	0.70616	28270.79252	884.98210	20223.73800	1314.82843	0.70629	28032.00000	890.00000	20060.00000
1323.12177	0.15137	0.70572	28955.06915	860.68820	20687.44184	1321.01880	0.70589	28719.00000	862.00000	20526.00000
1329.31613	0.15177	0.70507	29633.32179	868.03484	21149.48147	1327.20917	0.70531	29411.00000	869.00000	21000.00000
1335.51048	0.15221	0.70436	30302.79696	861.31771	21598.69258	1333.39954	0.70459	30064.00000	861.00000	21437.00000
1341.70484	0.15263	0.70368	31040.63710	883.35260	22104.36964	1339.58991	0.70393	30788.00000	873.00000	21931.00000
1347.89919	0.15314	0.70285	31710.62252	886.82909	22551.27917	1345.78028	0.70314	31498.00000	894.00000	22413.00000
1354.09355	0.15364	0.70203	32368.46417	858.22619	22979.32369	1351.97065	0.70229	32123.00000	864.00000	22817.00000
1360.28790	0.15415	0.70121	33079.41609	863.88248	23453.72293	1358.16102	0.70152	32852.00000	860.00000	23303.00000
1366.48226	0.15512	0.69965	33719.60962	862.84716	23851.14734	1364.35139	0.70034	33491.00000	867.00000	23715.00000
1372.67661	0.15721	0.69628	34419.13569	848.00380	24222.95309	1370.54176	0.69769	34178.00000	851.00000	24103.00000
1378.87097	0.15994	0.69193	34997.78982	865.89108	24482.86947	1376.73213	0.69335	34829.00000	855.00000	24411.00000
1385.06532	0.16235	0.68810	35282.55609	871.96034	24549.93084	1382.92250	0.68943	35216.00000	879.00000	24552.00000
1391.25968	0.16487	0.68412	35454.56849	868.59113	24529.45526	1389.11287	0.68552	35383.00000	859.00000	24526.00000
1397.45403	0.16802	0.67917	35619.60134	886.37628	24476.12905	1395.30324	0.68111	35583.00000	891.00000	24520.00000
1403.64839	0.17211	0.67281	35834.55471	865.31191	24392.85612	1401.49361	0.67507	35714.00000	866.00000	24391.00000
1409.84274	0.17645	0.66612	36489.35769	873.82043	24597.90191	1407.68398	0.66848	36214.00000	874.00000	24498.00000
1416.03710	0.18058	0.65981	37454.71523	877.22955	25011.57102	1413.87435	0.66187	37098.00000	872.00000	24849.00000
1422.23145	0.18384	0.65488	38501.95566	886.60375	25520.05680	1420.06472	0.65645	38137.00000	888.00000	25340.00000
1428.42581	0.18618	0.65135	39622.23895	874.12429	26112.76639	1426.25509	0.65242	39208.00000	877.00000	25885.00000
1434.62016	0.18772	0.64905	40761.26708	872.53526	26762.22921	1432.44546	0.64975	40388.00000	873.00000	26548.00000
1440.81452	0.18862	0.64770	41685.67119	872.92918	27307.50371	1438.63583	0.64805	41375.00000	872.00000	27120.00000
1447.00887	0.18867	0.64764	42697.97010	892.09592	27967.15196	1444.82620	0.64750	42303.00000	882.00000	27702.00000
1453.20323	0.18816	0.64839	43743.69350	881.19502	28672.76830	1451.01657	0.64812	43420.00000	897.00000	28457.00000
1459.39758	0.18724	0.64978	44616.30730	861.83262	29292.58808	1457.20694	0.64911	44284.00000	854.00000	29045.00000
1465.59194	0.18567	0.65212	45681.51347	893.65188	30100.63815	1463.39731	0.65128	45294.00000	891.00000	29810.00000
1471.78629	0.18397	0.65468	46691.44736	880.41136	30872.08634	1469.58768	0.65370	46358.00000	883.00000	30610.00000
1477.98065	0.18191	0.65779	47539.84378	864.96700	31567.14937	1475.77805	0.65665	47244.00000	875.00000	31323.00000
1484.17500	0.17963	0.66125	48453.02745	858.97393	32330.85254	1481.96842	0.65997	48107.00000	852.00000	32039.00000
1490.36935	0.17724	0.66490	49314.35954	885.82004	33085.76904	1488.15879	0.66361	49049.00000	881.00000	32846.00000
1496.56371	0.17493	0.66845	50001.49019	880.23876	33715.67268	1494.34916	0.66718	49741.00000	883.00000	33480.00000
1502.75806	0.17264	0.67199	50705.77350	864.52184	34357.31512	1500.53953	0.67074	50474.00000	872.00000	34142.00000
1508.95242	0.17039	0.67548	51385.78695	891.73536	34999.39838	1506.72990	0.67422	51118.00000	869.00000	34748.00000
1515.14677	0.16845	0.67850	52107.85403	893.71978	35642.41920	1512.92027	0.67754	51872.00000	917.00000	35441.00000
1521.34113	0.16678	0.68111	52815.89525	851.69957	36245.15544	1519.11064	0.68011	52530.00000	844.00000	35996.00000
1527.53548	0.16513	0.68371	53548.61369	896.26537	36895.33785	1525.30101	0.68288	53323.00000	892.00000	36696.00000
1533.72984	0.16386	0.68571	54149.95370	878.59624	37407.41017	1531.49138	0.68500	53910.00000	882.00000	37206.00000
1539.92419	0.16268	0.68758	54832.12801	868.84378	37972.68167	1537.68175	0.68694	54600.00000	876.00000	37781.00000
1546.11855	0.16154	0.68938	55451.13851	864.00141	38495.24714	1543.87212	0.68869	55220.00000	859.00000	38297.00000
1552.31290	0.16038	0.69122	56042.33834	881.37311	39009.79139	1550.06249	0.69059	55845.00000	879.00000	38838.00000
1558.50726	0.15937	0.69283	56662.34212	881.97129	39528.61377	1556.25286	0.69225	56406.00000	880.00000	39318.00000
1564.70161	0.15845	0.69430	57241.63462	881.81730	40012.35880	1562.44323	0.69380	57084.00000	885.00000	39876.00000
1570.89597	0.15765	0.69559	57652.97230	868.16681	40367.02469	1568.63360	0.69511	57470.00000	872.00000	40214.00000
1577.09032	0.15683	0.69690	58206.47218	874.43948	40829.06948	1574.82397	0.69643	58018.00000	869.00000	40669.00000
1583.28468	0.15617	0.69795	58673.40818	887.42953	41219.36512	1581.01434	0.69762	58502.00000	885.00000	41080.00000
1589.47903	0.15563	0.69883	59041.87130	888.83630	41528.07544	1587.20471	0.69848	58934.00000	888.00000	41432.00000
1595.67339	0.15508	0.69971	59358.10218	876.53006	41796.66903	1593.39508	0.69943	59218.00000	885.00000	41685.00000
1601.86774	0.15461	0.70048	59778.17203	883.72242	42137.83890	1599.58545	0.70016	59632.00000	871.00000	42013.00000
1608.06210	0.15410	0.70129	60103.05486	896.34115	42417.18454	1605.77582	0.70103	59993.00000	904.00000	42327.00000
1614.25645	0.15368	0.70197	60403.71328	879.81794	42663.92270	1611.96619	0.70169	60288.00000	876.00000	42565.00000
1620.45081	0.15327	0.70263	60606.54759	887.56155	42847.83256	1618.15656	0.70243	60563.00000	893.00000	42807.00000
1626.64516	0.15291	0.70322	60733.55595	878.59339	42969.79328	1624.34693	0.70296	60663.00000	874.00000	42903.00000
1632.83952	0.15247	0.70394	60986.21919	889.52033	43193.75923	1630.53730	0.70370	60896.00000	892.00000	43117.00000
1639.03387	0.15214	0.70447	61048.69415	866.62659	43263.03758	1636.72767	0.70427	61067.00000	874.00000	43266.00000
1645.22823	0.15177	0.70507	60863.78586	869.32764	43169.54281	1642.91804	0.70483	60949.00000	864.00000	43214.00000
1651.42258	0.15128	0.70587	59805.79968	899.77194	42479.68213	1649.10841	0.70553	60411.00000	887.00000	42883.00000
1657.61694	0.15075	0.70672	57584.63778	905.33477	40961.42105	1655.29878	0.70643	58428.00000	911.00000	41543.00000
1663.81129	0.14996	0.70802	56481.05190	890.63733	40250.18417	1661.48915	0.70736	56625.00000	891.00000	40315.00000
1670.00565	0.14851	0.71039	55048.67016	902.23167	39366.18505	1667.67952	0.70945	56028.00000	899.00000	40010.00000
1676.20000	0.14666	0.71341	51378.45954	875.98122	36907.07200	1673.86989	0.71214	52735.00000	893.00000	37812.00000
0.00000	0.00000	0.00000	0.00000	0.00000	0.00000	1680.06026	0.71619	48849.00000	859.00000	35229.00000
0.00000	0.00000	0.00000	0.00000	0.00000	0.00000	1686.25063	0.72126	44181.00000	908.00000	32119.00000
0.00000	0.00000	0.00000	0.00000	0.00000	0.00000	1692.44100	0.72126	44181.00000	908.00000	32119.00000
