'File ÑÎ_2_2016Ò»ÔÂ28_1050.xls
'Part ID ÑÎ_2
'Scan Created 2016/1/28 10:50:33
'Instrument S1-00205
'Version 1.5.7
'Integration Time 10100 µs
'Number of Scans 50
'Units Absorbance
'Thermistor 45.81
Wavelength	Absorbance	Normalized	100%	dark	Raw 1	Native Wvl	Native Norm	Native 100%	Native dark	Native 1
908.10000	0.15166	0.70525	3514.15951	877.71219	2737.12597	906.26400	0.70593	3596.00000	879.00000	2797.00000
914.29435	0.15322	0.70272	3281.25113	863.65831	2562.52811	912.45437	0.70352	3339.00000	870.00000	2607.00000
920.48871	0.15428	0.70101	3227.40662	877.32414	2524.76158	918.64474	0.70123	3216.00000	863.00000	2513.00000
926.68306	0.15552	0.69900	3307.28228	905.48228	2584.32071	924.83511	0.70013	3291.00000	910.00000	2577.00000
932.87742	0.15787	0.69523	3382.42130	864.28145	2614.96584	931.02548	0.69592	3345.00000	872.00000	2593.00000
939.07177	0.15775	0.69542	3608.15965	881.02078	2777.57745	937.21585	0.69514	3528.00000	871.00000	2718.00000
945.26613	0.15782	0.69530	3846.64039	885.69520	2944.39593	943.40622	0.69568	3789.00000	894.00000	2908.00000
951.46048	0.15849	0.69424	4004.44998	860.87297	3043.30919	949.59659	0.69425	3954.00000	860.00000	3008.00000
957.65484	0.15827	0.69460	4209.47249	887.01493	3194.74731	955.78696	0.69467	4143.00000	881.00000	3147.00000
963.84919	0.15857	0.69412	4374.85740	871.56767	3303.25873	961.97733	0.69413	4341.00000	882.00000	3283.00000
970.04355	0.15754	0.69576	4520.56130	886.05989	3414.89155	968.16770	0.69499	4456.00000	866.00000	3361.00000
976.23790	0.15727	0.69620	4717.71427	911.39747	3561.23510	974.35807	0.69678	4679.00000	926.00000	3541.00000
982.43226	0.15800	0.69502	4843.76664	857.92770	3628.30241	980.54844	0.69466	4787.00000	857.00000	3587.00000
988.62661	0.15709	0.69649	5076.97721	894.34516	3807.37927	986.73881	0.69660	5011.00000	891.00000	3761.00000
994.82097	0.15790	0.69518	5297.39601	869.00992	3947.62722	992.92918	0.69528	5222.00000	877.00000	3898.00000
1001.01532	0.15720	0.69631	5554.06756	873.41459	4132.59011	999.11955	0.69593	5480.00000	866.00000	4077.00000
1007.20968	0.15707	0.69651	5827.05497	883.56657	4326.72153	1005.30992	0.69668	5731.00000	888.00000	4262.00000
1013.40403	0.15690	0.69679	6120.28754	870.80251	4528.62842	1011.50029	0.69635	6045.00000	868.00000	4473.00000
1019.59839	0.15588	0.69843	6348.68404	901.94795	4706.08369	1017.69066	0.69816	6270.00000	893.00000	4647.00000
1025.79274	0.15603	0.69818	6618.61076	896.05363	4891.39796	1023.88103	0.69831	6540.00000	905.00000	4840.00000
1031.98710	0.15598	0.69827	6878.79036	877.64868	5068.09136	1030.07140	0.69811	6792.00000	876.00000	5006.00000
1038.18145	0.15583	0.69851	7153.19229	875.20158	5260.36678	1036.26177	0.69859	7075.00000	884.00000	5209.00000
1044.37581	0.15570	0.69871	7435.03734	854.54502	5452.47975	1042.45214	0.69840	7334.00000	852.00000	5379.00000
1050.57016	0.15523	0.69946	7778.63216	881.04291	5705.59310	1048.64251	0.69950	7678.00000	876.00000	5634.00000
1056.76452	0.15558	0.69891	8066.37003	871.22278	5900.00487	1054.83288	0.69896	7979.00000	877.00000	5841.00000
1062.95887	0.15514	0.69961	8367.94643	870.25694	6115.74151	1061.02325	0.69931	8268.00000	865.00000	6042.00000
1069.15323	0.15494	0.69994	8674.59951	877.92605	6335.07449	1067.21362	0.70003	8586.00000	882.00000	6275.00000
1075.34758	0.15504	0.69979	8958.19691	861.24829	6527.43110	1073.40399	0.69966	8863.00000	862.00000	6460.00000
1081.54194	0.15472	0.70030	9269.61857	868.88623	6751.86939	1079.59436	0.70025	9175.00000	868.00000	6685.00000
1087.73629	0.15448	0.70067	9599.77547	889.96693	6992.76443	1085.78473	0.70039	9485.00000	877.00000	6906.00000
1093.93065	0.15417	0.70118	9958.85840	903.23915	7252.81285	1091.97510	0.70125	9855.00000	911.00000	7183.00000
1100.12500	0.15456	0.70055	10287.04131	864.70017	7465.57154	1098.16547	0.70067	10175.00000	871.00000	7390.00000
1106.31935	0.15467	0.70037	10673.09117	870.26271	7735.86227	1104.35584	0.70048	10550.00000	868.00000	7650.00000
1112.51371	0.15485	0.70009	11054.17109	867.39097	7999.09504	1110.54621	0.70012	10934.00000	870.00000	7916.00000
1118.70806	0.15484	0.70010	11440.58269	866.80701	8269.47615	1116.73658	0.70012	11315.00000	864.00000	8181.00000
1124.90242	0.15484	0.70011	11853.47185	879.92340	8562.59713	1122.92695	0.70006	11719.00000	877.00000	8467.00000
1131.09677	0.15495	0.69991	12279.20991	877.48685	8857.69762	1129.11732	0.70011	12144.00000	880.00000	8766.00000
1137.29113	0.15563	0.69882	12658.45812	855.49825	9103.66654	1135.30769	0.69920	12547.00000	865.00000	9033.00000
1143.48548	0.15599	0.69825	13049.18681	852.30684	9368.78692	1141.49806	0.69828	12906.00000	845.00000	9267.00000
1149.67984	0.15590	0.69840	13533.98158	886.77209	9719.57145	1147.68843	0.69839	13382.00000	879.00000	9611.00000
1155.87419	0.15631	0.69773	13997.40073	876.37382	10031.31314	1153.87880	0.69807	13845.00000	885.00000	9932.00000
1162.06855	0.15678	0.69698	14503.46887	861.13988	10369.56691	1160.06917	0.69707	14335.00000	860.00000	10253.00000
1168.26290	0.15664	0.69721	15009.58309	885.01032	10732.80544	1166.25954	0.69712	14853.00000	877.00000	10620.00000
1174.45726	0.15659	0.69729	15471.50866	888.01740	11056.90067	1172.44991	0.69730	15322.00000	892.00000	10954.00000
1180.65161	0.15659	0.69729	15938.18293	858.48109	11373.38614	1178.64028	0.69726	15786.00000	869.00000	11270.00000
1186.84597	0.15642	0.69756	16436.20435	853.30650	11723.32301	1184.83065	0.69745	16267.00000	848.00000	11602.00000
1193.04032	0.15623	0.69786	16954.92806	876.34677	12096.98674	1191.02102	0.69778	16791.00000	872.00000	11980.00000
1199.23468	0.15610	0.69808	17462.35109	876.98642	12454.89308	1197.21139	0.69800	17291.00000	877.00000	12334.00000
1205.42903	0.15590	0.69839	17986.83670	869.01927	12823.90932	1203.40176	0.69828	17820.00000	874.00000	12707.00000
1211.62339	0.15568	0.69874	18479.84056	863.23699	13172.71275	1209.59213	0.69863	18318.00000	861.00000	13057.00000
1217.81774	0.15561	0.69886	19014.17361	874.89956	13551.77124	1215.78250	0.69888	18829.00000	873.00000	13422.00000
1224.01210	0.15560	0.69888	19594.72563	876.04482	13958.16546	1221.97287	0.69883	19406.00000	875.00000	13825.00000
1230.20645	0.15552	0.69900	20120.20026	872.48020	14326.67464	1228.16324	0.69900	19956.00000	876.00000	14213.00000
1236.40081	0.15535	0.69928	20649.23727	886.34799	14706.25360	1234.35361	0.69909	20461.00000	874.00000	14567.00000
1242.59516	0.15507	0.69973	21186.14180	892.43754	15092.44096	1240.54398	0.69970	21027.00000	904.00000	14984.00000
1248.78952	0.15512	0.69965	21639.43707	853.74756	15396.50395	1246.73435	0.69962	21481.00000	857.00000	15286.00000
1254.98387	0.15477	0.70022	22186.10389	887.90098	15801.37201	1252.92472	0.69997	21995.00000	874.00000	15658.00000
1261.17823	0.15451	0.70063	22744.98332	890.64324	16202.37548	1259.11509	0.70062	22568.00000	900.00000	16081.00000
1267.37258	0.15463	0.70044	23243.71070	844.15789	16533.69531	1265.30546	0.70046	23078.00000	857.00000	16422.00000
1273.56694	0.15438	0.70084	23813.43146	859.99157	16946.64899	1271.49583	0.70063	23605.00000	844.00000	16791.00000
1279.76129	0.15405	0.70138	24453.54449	898.95555	17419.70078	1277.68620	0.70127	24247.00000	895.00000	17271.00000
1285.95565	0.15413	0.70125	25039.29282	882.87107	17822.42337	1283.87657	0.70136	24843.00000	888.00000	17689.00000
1292.15000	0.15420	0.70113	25633.20976	874.48479	18233.63811	1290.06694	0.70108	25432.00000	877.00000	18092.00000
1298.34435	0.15405	0.70138	26275.57944	875.36170	18690.57170	1296.25731	0.70134	26049.00000	873.00000	18530.00000
1304.53871	0.15422	0.70111	26910.28272	864.72671	19125.41652	1302.44769	0.70125	26712.00000	874.00000	18993.00000
1310.73306	0.15442	0.70078	27539.76334	865.28161	19558.13515	1308.63806	0.70083	27304.00000	854.00000	19391.00000
1316.92742	0.15456	0.70055	28270.79252	884.98210	20070.11410	1314.82843	0.70069	28032.00000	890.00000	19908.00000
1323.12177	0.15490	0.70000	28955.06915	860.68820	20526.91293	1321.01880	0.70018	28719.00000	862.00000	20367.00000
1329.31613	0.15528	0.69939	29633.32179	868.03484	20986.22024	1327.20917	0.69964	29411.00000	869.00000	20838.00000
1335.51048	0.15571	0.69869	30302.79696	861.31771	21431.89032	1333.39954	0.69890	30064.00000	861.00000	21271.00000
1341.70484	0.15610	0.69807	31040.63710	883.35260	21935.24115	1339.58991	0.69831	30788.00000	873.00000	21763.00000
1347.89919	0.15663	0.69722	31710.62252	886.82909	22377.82363	1345.78028	0.69752	31498.00000	894.00000	22241.00000
1354.09355	0.15714	0.69640	32368.46417	858.22619	22802.09976	1351.97065	0.69666	32123.00000	864.00000	22641.00000
1360.28790	0.15762	0.69564	33079.41609	863.88248	23274.18661	1358.16102	0.69592	32852.00000	860.00000	23124.00000
1366.48226	0.15863	0.69402	33719.60962	862.84716	23666.16600	1364.35139	0.69476	33491.00000	867.00000	23533.00000
1372.67661	0.16071	0.69069	34419.13569	848.00380	24035.32411	1370.54176	0.69202	34178.00000	851.00000	23914.00000
1378.87097	0.16336	0.68650	34997.78982	865.89108	24297.63757	1376.73213	0.68794	34829.00000	855.00000	24227.00000
1385.06532	0.16586	0.68256	35282.55609	871.96034	24359.24979	1382.92250	0.68390	35216.00000	879.00000	24362.00000
1391.25968	0.16833	0.67868	35454.56849	868.59113	24341.53407	1389.11287	0.68005	35383.00000	859.00000	24337.00000
1397.45403	0.17144	0.67385	35619.60134	886.37628	24291.29661	1395.30324	0.67575	35583.00000	891.00000	24334.00000
1403.64839	0.17549	0.66759	35834.55471	865.31191	24210.27577	1401.49361	0.66982	35714.00000	866.00000	24208.00000
1409.84274	0.17978	0.66103	36489.35769	873.82043	24416.63168	1407.68398	0.66333	36214.00000	874.00000	24316.00000
1416.03710	0.18383	0.65489	37454.71523	877.22955	24831.52240	1413.87435	0.65690	37098.00000	872.00000	24669.00000
1422.23145	0.18710	0.64999	38501.95566	886.60375	25336.09402	1420.06472	0.65156	38137.00000	888.00000	25158.00000
1428.42581	0.18942	0.64652	39622.23895	874.12429	25925.60038	1426.25509	0.64754	39208.00000	877.00000	25698.00000
1434.62016	0.19085	0.64439	40761.26708	872.53526	26576.56364	1432.44546	0.64505	40388.00000	873.00000	26362.00000
1440.81452	0.19170	0.64313	41685.67119	872.92918	27120.97059	1438.63583	0.64346	41375.00000	872.00000	26934.00000
1447.00887	0.19171	0.64311	42697.97010	892.09592	27778.13655	1444.82620	0.64296	42303.00000	882.00000	27514.00000
1453.20323	0.19117	0.64391	43743.69350	881.19502	28480.70029	1451.01657	0.64363	43420.00000	897.00000	28266.00000
1459.39758	0.19026	0.64526	44616.30730	861.83262	29094.94767	1457.20694	0.64462	44284.00000	854.00000	28850.00000
1465.59194	0.18874	0.64753	45681.51347	893.65188	29895.28948	1463.39731	0.64671	45294.00000	891.00000	29607.00000
1471.78629	0.18704	0.65007	46691.44736	880.41136	30660.85289	1469.58768	0.64910	46358.00000	883.00000	30401.00000
1477.98065	0.18502	0.65310	47539.84378	864.96700	31348.20035	1475.77805	0.65199	47244.00000	875.00000	31107.00000
1484.17500	0.18276	0.65650	48453.02745	858.97393	32104.67178	1481.96842	0.65523	48107.00000	852.00000	31815.00000
1490.36935	0.18036	0.66015	49314.35954	885.82004	32855.59561	1488.15879	0.65886	49049.00000	881.00000	32617.00000
1496.56371	0.17806	0.66366	50001.49019	880.23876	33480.05863	1494.34916	0.66241	49741.00000	883.00000	33247.00000
1502.75806	0.17581	0.66710	50705.77350	864.52184	34113.75705	1500.53953	0.66588	50474.00000	872.00000	33901.00000
1508.95242	0.17360	0.67051	51385.78695	891.73536	34748.41034	1506.72990	0.66929	51118.00000	869.00000	34500.00000
1515.14677	0.17168	0.67347	52107.85403	893.71978	35384.57301	1512.92027	0.67251	51872.00000	917.00000	35185.00000
1521.34113	0.17003	0.67603	52815.89525	851.69957	35981.33942	1519.11064	0.67506	52530.00000	844.00000	35735.00000
1527.53548	0.16844	0.67852	53548.61369	896.26537	36621.98804	1525.30101	0.67773	53323.00000	892.00000	36426.00000
1533.72984	0.16720	0.68046	54149.95370	878.59624	37127.75168	1531.49138	0.67975	53910.00000	882.00000	36928.00000
1539.92419	0.16601	0.68232	54832.12801	868.84378	37688.93520	1537.68175	0.68169	54600.00000	876.00000	37499.00000
1546.11855	0.16491	0.68405	55451.13851	864.00141	38204.18594	1543.87212	0.68339	55220.00000	859.00000	38009.00000
1552.31290	0.16382	0.68578	56042.33834	881.37311	38709.50447	1550.06249	0.68519	55845.00000	879.00000	38541.00000
1558.50726	0.16280	0.68738	56662.34212	881.97129	39224.36409	1556.25286	0.68678	56406.00000	880.00000	39014.00000
1564.70161	0.16188	0.68884	57241.63462	881.81730	39704.61446	1562.44323	0.68838	57084.00000	885.00000	39571.00000
1570.89597	0.16114	0.69002	57652.97230	868.16681	40050.64317	1568.63360	0.68957	57470.00000	872.00000	39900.00000
1577.09032	0.16036	0.69126	58206.47218	874.43948	40505.85201	1574.82397	0.69083	58018.00000	869.00000	40349.00000
1583.28468	0.15972	0.69227	58673.40818	887.42953	40890.93032	1581.01434	0.69193	58502.00000	885.00000	40752.00000
1589.47903	0.15916	0.69317	59041.87130	888.83630	41198.91895	1587.20471	0.69283	58934.00000	888.00000	41104.00000
1595.67339	0.15860	0.69406	59358.10218	876.53006	41466.55726	1593.39508	0.69376	59218.00000	885.00000	41354.00000
1601.86774	0.15814	0.69481	59778.17203	883.72242	41804.00625	1599.58545	0.69454	59632.00000	871.00000	41683.00000
1608.06210	0.15772	0.69548	60103.05486	896.34115	42073.25789	1605.77582	0.69524	59993.00000	904.00000	41985.00000
1614.25645	0.15730	0.69614	60403.71328	879.81794	42316.97550	1611.96619	0.69589	60288.00000	876.00000	42220.00000
1620.45081	0.15691	0.69678	60606.54759	887.56155	42498.30673	1618.15656	0.69656	60563.00000	893.00000	42457.00000
1626.64516	0.15653	0.69739	60733.55595	878.59339	42620.68089	1624.34693	0.69713	60663.00000	874.00000	42555.00000
1632.83952	0.15612	0.69803	60986.21919	889.52033	42838.95495	1630.53730	0.69782	60896.00000	892.00000	42764.00000
1639.03387	0.15580	0.69856	61048.69415	866.62659	42907.43006	1636.72767	0.69835	61067.00000	874.00000	42910.00000
1645.22823	0.15541	0.69918	60863.78586	869.32764	42816.59071	1642.91804	0.69894	60949.00000	864.00000	42860.00000
1651.42258	0.15491	0.69998	59805.79968	899.77194	42132.91634	1649.10841	0.69965	60411.00000	887.00000	42533.00000
1657.61694	0.15439	0.70083	57584.63778	905.33477	40627.88728	1655.29878	0.70054	58428.00000	911.00000	41204.00000
1663.81129	0.15357	0.70214	56481.05190	890.63733	39923.81299	1661.48915	0.70149	56625.00000	891.00000	39988.00000
1670.00565	0.15210	0.70453	55048.67016	902.23167	39048.71475	1667.67952	0.70357	56028.00000	899.00000	39686.00000
1676.20000	0.15024	0.70755	51378.45954	875.98122	36611.11389	1673.86989	0.70630	52735.00000	893.00000	37509.00000
0.00000	0.00000	0.00000	0.00000	0.00000	0.00000	1680.06026	0.71034	48849.00000	859.00000	34948.00000
0.00000	0.00000	0.00000	0.00000	0.00000	0.00000	1686.25063	0.71564	44181.00000	908.00000	31876.00000
0.00000	0.00000	0.00000	0.00000	0.00000	0.00000	1692.44100	0.71564	44181.00000	908.00000	31876.00000
