'File ÑÎ_3_2016Ò»ÔÂ28_1050.xls
'Part ID ÑÎ_3
'Scan Created 2016/1/28 10:50:36
'Instrument S1-00205
'Version 1.5.7
'Integration Time 10100 µs
'Number of Scans 50
'Units Absorbance
'Thermistor 46.13
Wavelength	Absorbance	Normalized	100%	dark	Raw 1	Native Wvl	Native Norm	Native 100%	Native dark	Native 1
908.10000	0.14860	0.71024	3514.15951	877.71219	2750.22281	906.26400	0.71071	3596.00000	879.00000	2810.00000
914.29435	0.15054	0.70707	3281.25113	863.65831	2573.09296	912.45437	0.70838	3339.00000	870.00000	2619.00000
920.48871	0.15199	0.70470	3227.40662	877.32414	2533.44309	918.64474	0.70463	3216.00000	863.00000	2521.00000
926.68306	0.15229	0.70422	3307.28228	905.48228	2596.84600	924.83511	0.70517	3291.00000	910.00000	2589.00000
932.87742	0.15495	0.69992	3382.42130	864.28145	2626.79975	931.02548	0.70077	3345.00000	872.00000	2605.00000
939.07177	0.15497	0.69989	3608.15965	881.02078	2789.74338	937.21585	0.69966	3528.00000	871.00000	2730.00000
945.26613	0.15495	0.69992	3846.64039	885.69520	2958.06909	943.40622	0.70017	3789.00000	894.00000	2921.00000
951.46048	0.15551	0.69903	4004.44998	860.87297	3058.34351	949.59659	0.69910	3954.00000	860.00000	3023.00000
957.65484	0.15535	0.69927	4209.47249	887.01493	3210.30868	955.78696	0.69926	4143.00000	881.00000	3162.00000
963.84919	0.15555	0.69896	4374.85740	871.56767	3320.19790	961.97733	0.69905	4341.00000	882.00000	3300.00000
970.04355	0.15482	0.70013	4520.56130	886.05989	3430.76679	968.16770	0.69944	4456.00000	866.00000	3377.00000
976.23790	0.15467	0.70037	4717.71427	911.39747	3577.10587	974.35807	0.70104	4679.00000	926.00000	3557.00000
982.43226	0.15573	0.69867	4843.76664	857.92770	3642.81156	980.54844	0.69847	4787.00000	857.00000	3602.00000
988.62661	0.15463	0.70044	5076.97721	894.34516	3823.95387	986.73881	0.70024	5011.00000	891.00000	3776.00000
994.82097	0.15510	0.69967	5297.39601	869.00992	3967.44814	992.92918	0.69988	5222.00000	877.00000	3918.00000
1001.01532	0.15478	0.70020	5554.06756	873.41459	4150.83233	999.11955	0.69983	5480.00000	866.00000	4095.00000
1007.20968	0.15453	0.70060	5827.05497	883.56657	4346.88613	1005.30992	0.70081	5731.00000	888.00000	4282.00000
1013.40403	0.15448	0.70069	6120.28754	870.80251	4549.11974	1011.50029	0.70021	6045.00000	868.00000	4493.00000
1019.59839	0.15335	0.70250	6348.68404	901.94795	4728.25024	1017.69066	0.70225	6270.00000	893.00000	4669.00000
1025.79274	0.15363	0.70205	6618.61076	896.05363	4913.60671	1023.88103	0.70222	6540.00000	905.00000	4862.00000
1031.98710	0.15358	0.70213	6878.79036	877.64868	5091.27325	1030.07140	0.70199	6792.00000	876.00000	5029.00000
1038.18145	0.15336	0.70248	7153.19229	875.20158	5285.34820	1036.26177	0.70247	7075.00000	884.00000	5233.00000
1044.37581	0.15315	0.70282	7435.03734	854.54502	5479.52070	1042.45214	0.70256	7334.00000	852.00000	5406.00000
1050.57016	0.15272	0.70352	7778.63216	881.04291	5733.58600	1048.64251	0.70347	7678.00000	876.00000	5661.00000
1056.76452	0.15285	0.70331	8066.37003	871.22278	5931.68253	1054.83288	0.70332	7979.00000	877.00000	5872.00000
1062.95887	0.15249	0.70390	8367.94643	870.25694	6147.93120	1061.02325	0.70363	8268.00000	865.00000	6074.00000
1069.15323	0.15229	0.70423	8674.59951	877.92605	6368.51416	1067.21362	0.70431	8586.00000	882.00000	6308.00000
1075.34758	0.15244	0.70397	8958.19691	861.24829	6561.33104	1073.40399	0.70391	8863.00000	862.00000	6494.00000
1081.54194	0.15216	0.70443	9269.61857	868.88623	6786.60097	1079.59436	0.70435	9175.00000	868.00000	6719.00000
1087.73629	0.15181	0.70501	9599.77547	889.96693	7030.50631	1085.78473	0.70469	9485.00000	877.00000	6943.00000
1093.93065	0.15161	0.70532	9958.85840	903.23915	7290.29739	1091.97510	0.70550	9855.00000	911.00000	7221.00000
1100.12500	0.15207	0.70457	10287.04131	864.70017	7503.51485	1098.16547	0.70464	10175.00000	871.00000	7427.00000
1106.31935	0.15203	0.70465	10673.09117	870.26271	7777.73690	1104.35584	0.70471	10550.00000	868.00000	7691.00000
1112.51371	0.15219	0.70438	11054.17109	867.39097	8042.82176	1110.54621	0.70439	10934.00000	870.00000	7959.00000
1118.70806	0.15221	0.70435	11440.58269	866.80701	8314.44270	1116.73658	0.70443	11315.00000	864.00000	8226.00000
1124.90242	0.15225	0.70428	11853.47185	879.92340	8608.46865	1122.92695	0.70421	11719.00000	877.00000	8512.00000
1131.09677	0.15234	0.70414	12279.20991	877.48685	8905.87144	1129.11732	0.70437	12144.00000	880.00000	8814.00000
1137.29113	0.15296	0.70313	12658.45812	855.49825	9154.55459	1135.30769	0.70339	12547.00000	865.00000	9082.00000
1143.48548	0.15318	0.70277	13049.18681	852.30684	9423.93387	1141.49806	0.70284	12906.00000	845.00000	9322.00000
1149.67984	0.15323	0.70271	13533.98158	886.77209	9774.10820	1147.68843	0.70271	13382.00000	879.00000	9665.00000
1155.87419	0.15358	0.70213	13997.40073	876.37382	10088.99312	1153.87880	0.70247	13845.00000	885.00000	9989.00000
1162.06855	0.15414	0.70123	14503.46887	861.13988	10427.62017	1160.06917	0.70137	14335.00000	860.00000	10311.00000
1168.26290	0.15399	0.70147	15009.58309	885.01032	10792.95312	1166.25954	0.70135	14853.00000	877.00000	10679.00000
1174.45726	0.15386	0.70168	15471.50866	888.01740	11120.88552	1172.44991	0.70166	15322.00000	892.00000	11017.00000
1180.65161	0.15390	0.70161	15938.18293	858.48109	11438.53671	1178.64028	0.70162	15786.00000	869.00000	11335.00000
1186.84597	0.15375	0.70187	16436.20435	853.30650	11790.44719	1184.83065	0.70173	16267.00000	848.00000	11668.00000
1193.04032	0.15358	0.70214	16954.92806	876.34677	12165.70827	1191.02102	0.70212	16791.00000	872.00000	12049.00000
1199.23468	0.15343	0.70238	17462.35109	876.98642	12526.21112	1197.21139	0.70221	17291.00000	877.00000	12403.00000
1205.42903	0.15317	0.70280	17986.83670	869.01927	12899.42760	1203.40176	0.70276	17820.00000	874.00000	12783.00000
1211.62339	0.15308	0.70294	18479.84056	863.23699	13246.69927	1209.59213	0.70281	18318.00000	861.00000	13130.00000
1217.81774	0.15284	0.70333	19014.17361	874.89956	13632.78429	1215.78250	0.70327	18829.00000	873.00000	13501.00000
1224.01210	0.15285	0.70332	19594.72563	876.04482	14041.26664	1221.97287	0.70331	19406.00000	875.00000	13908.00000
1230.20645	0.15284	0.70334	20120.20026	872.48020	14410.12015	1228.16324	0.70335	19956.00000	876.00000	14296.00000
1236.40081	0.15266	0.70362	20649.23727	886.34799	14791.93384	1234.35361	0.70343	20461.00000	874.00000	14652.00000
1242.59516	0.15239	0.70406	21186.14180	892.43754	15180.27967	1240.54398	0.70402	21027.00000	904.00000	15071.00000
1248.78952	0.15240	0.70404	21639.43707	853.74756	15487.76978	1246.73435	0.70399	21481.00000	857.00000	15376.00000
1254.98387	0.15200	0.70470	22186.10389	887.90098	15896.73671	1252.92472	0.70442	21995.00000	874.00000	15752.00000
1261.17823	0.15171	0.70517	22744.98332	890.64324	16301.59702	1259.11509	0.70514	22568.00000	900.00000	16179.00000
1267.37258	0.15183	0.70497	23243.71070	844.15789	16635.07095	1265.30546	0.70501	23078.00000	857.00000	16523.00000
1273.56694	0.15162	0.70531	23813.43146	859.99157	17049.41144	1271.49583	0.70511	23605.00000	844.00000	16893.00000
1279.76129	0.15126	0.70589	24453.54449	898.95555	17525.92623	1277.68620	0.70576	24247.00000	895.00000	17376.00000
1285.95565	0.15130	0.70583	25039.29282	882.87107	17933.09937	1283.87657	0.70591	24843.00000	888.00000	17798.00000
1292.15000	0.15138	0.70569	25633.20976	874.48479	18346.57657	1290.06694	0.70568	25432.00000	877.00000	18205.00000
1298.34435	0.15132	0.70580	26275.57944	875.36170	18802.81283	1296.25731	0.70579	26049.00000	873.00000	18642.00000
1304.53871	0.15143	0.70562	26910.28272	864.72671	19242.90625	1302.44769	0.70570	26712.00000	874.00000	19108.00000
1310.73306	0.15157	0.70538	27539.76334	865.28161	19681.05212	1308.63806	0.70544	27304.00000	854.00000	19513.00000
1316.92742	0.15178	0.70505	28270.79252	884.98210	20193.28415	1314.82843	0.70522	28032.00000	890.00000	20031.00000
1323.12177	0.15211	0.70452	28955.06915	860.68820	20653.79329	1321.01880	0.70467	28719.00000	862.00000	20492.00000
1329.31613	0.15248	0.70392	29633.32179	868.03484	21116.38670	1327.20917	0.70419	29411.00000	869.00000	20968.00000
1335.51048	0.15295	0.70315	30302.79696	861.31771	21563.10549	1333.39954	0.70335	30064.00000	861.00000	21401.00000
1341.70484	0.15329	0.70260	31040.63710	883.35260	22071.79864	1339.58991	0.70282	30788.00000	873.00000	21898.00000
1347.89919	0.15385	0.70170	31710.62252	886.82909	22515.87453	1345.78028	0.70203	31498.00000	894.00000	22379.00000
1354.09355	0.15436	0.70088	32368.46417	858.22619	22943.02579	1351.97065	0.70111	32123.00000	864.00000	22780.00000
1360.28790	0.15480	0.70016	33079.41609	863.88248	23419.99467	1358.16102	0.70046	32852.00000	860.00000	23269.00000
1366.48226	0.15585	0.69848	33719.60962	862.84716	23812.65183	1364.35139	0.69924	33491.00000	867.00000	23679.00000
1372.67661	0.15799	0.69505	34419.13569	848.00380	24181.47210	1370.54176	0.69643	34178.00000	851.00000	24061.00000
1378.87097	0.16070	0.69071	34997.78982	865.89108	24441.34938	1376.73213	0.69218	34829.00000	855.00000	24371.00000
1385.06532	0.16321	0.68674	35282.55609	871.96034	24503.09739	1382.92250	0.68809	35216.00000	879.00000	24506.00000
1391.25968	0.16566	0.68288	35454.56849	868.59113	24486.55861	1389.11287	0.68422	35383.00000	859.00000	24481.00000
1397.45403	0.16872	0.67808	35619.60134	886.37628	24438.26220	1395.30324	0.67998	35583.00000	891.00000	24481.00000
1403.64839	0.17279	0.67176	35834.55471	865.31191	24356.27472	1401.49361	0.67401	35714.00000	866.00000	24354.00000
1409.84274	0.17706	0.66518	36489.35769	873.82043	24564.35717	1407.68398	0.66749	36214.00000	874.00000	24463.00000
1416.03710	0.18113	0.65898	37454.71523	877.22955	24981.12571	1413.87435	0.66102	37098.00000	872.00000	24818.00000
1422.23145	0.18436	0.65410	38501.95566	886.60375	25490.73680	1420.06472	0.65564	38137.00000	888.00000	25310.00000
1428.42581	0.18662	0.65070	39622.23895	874.12429	26087.42962	1426.25509	0.65172	39208.00000	877.00000	25858.00000
1434.62016	0.18806	0.64854	40761.26708	872.53526	26741.92178	1432.44546	0.64920	40388.00000	873.00000	26526.00000
1440.81452	0.18891	0.64728	41685.67119	872.92918	27290.09597	1438.63583	0.64761	41375.00000	872.00000	27102.00000
1447.00887	0.18894	0.64724	42697.97010	892.09592	27950.42703	1444.82620	0.64709	42303.00000	882.00000	27685.00000
1453.20323	0.18837	0.64809	43743.69350	881.19502	28659.66877	1451.01657	0.64777	43420.00000	897.00000	28442.00000
1459.39758	0.18742	0.64950	44616.30730	861.83262	29280.32887	1457.20694	0.64886	44284.00000	854.00000	29034.00000
1465.59194	0.18592	0.65175	45681.51347	893.65188	30083.94825	1463.39731	0.65092	45294.00000	891.00000	29794.00000
1471.78629	0.18420	0.65434	46691.44736	880.41136	30856.45375	1469.58768	0.65335	46358.00000	883.00000	30594.00000
1477.98065	0.18215	0.65743	47539.84378	864.96700	31550.23341	1475.77805	0.65630	47244.00000	875.00000	31307.00000
1484.17500	0.17991	0.66084	48453.02745	858.97393	32310.98572	1481.96842	0.65957	48107.00000	852.00000	32020.00000
1490.36935	0.17754	0.66445	49314.35954	885.82004	33064.09659	1488.15879	0.66318	49049.00000	881.00000	32825.00000
1496.56371	0.17527	0.66792	50001.49019	880.23876	33689.44189	1494.34916	0.66669	49741.00000	883.00000	33456.00000
1502.75806	0.17300	0.67142	50705.77350	864.52184	34328.97271	1500.53953	0.67015	50474.00000	872.00000	34113.00000
1508.95242	0.17075	0.67491	51385.78695	891.73536	34970.78003	1506.72990	0.67369	51118.00000	869.00000	34721.00000
1515.14677	0.16888	0.67784	52107.85403	893.71978	35608.43183	1512.92027	0.67689	51872.00000	917.00000	35408.00000
1521.34113	0.16720	0.68045	52815.89525	851.69957	36210.78792	1519.11064	0.67945	52530.00000	844.00000	35962.00000
1527.53548	0.16560	0.68296	53548.61369	896.26537	36855.59444	1525.30101	0.68217	53323.00000	892.00000	36659.00000
1533.72984	0.16439	0.68487	54149.95370	878.59624	37362.87776	1531.49138	0.68417	53910.00000	882.00000	37162.00000
1539.92419	0.16320	0.68675	54832.12801	868.84378	37928.28540	1537.68175	0.68612	54600.00000	876.00000	37737.00000
1546.11855	0.16208	0.68852	55451.13851	864.00141	38448.49757	1543.87212	0.68785	55220.00000	859.00000	38251.00000
1552.31290	0.16094	0.69033	56042.33834	881.37311	38960.83084	1550.06249	0.68972	55845.00000	879.00000	38790.00000
1558.50726	0.15993	0.69194	56662.34212	881.97129	39478.94120	1556.25286	0.69135	56406.00000	880.00000	39268.00000
1564.70161	0.15903	0.69338	57241.63462	881.81730	39960.23101	1562.44323	0.69291	57084.00000	885.00000	39826.00000
1570.89597	0.15827	0.69460	57652.97230	868.16681	40310.82845	1568.63360	0.69412	57470.00000	872.00000	40158.00000
1577.09032	0.15746	0.69589	58206.47218	874.43948	40771.32068	1574.82397	0.69545	58018.00000	869.00000	40613.00000
1583.28468	0.15680	0.69695	58673.40818	887.42953	41161.24598	1581.01434	0.69658	58502.00000	885.00000	41020.00000
1589.47903	0.15621	0.69789	59041.87130	888.83630	41473.50145	1587.20471	0.69755	58934.00000	888.00000	41378.00000
1595.67339	0.15573	0.69866	59358.10218	876.53006	41735.31887	1593.39508	0.69842	59218.00000	885.00000	41626.00000
1601.86774	0.15526	0.69942	59778.17203	883.72242	42075.53690	1599.58545	0.69909	59632.00000	871.00000	41950.00000
1608.06210	0.15475	0.70024	60103.05486	896.34115	42355.42721	1605.77582	0.69999	59993.00000	904.00000	42266.00000
1614.25645	0.15435	0.70089	60403.71328	879.81794	42599.50113	1611.96619	0.70062	60288.00000	876.00000	42501.00000
1620.45081	0.15393	0.70156	60606.54759	887.56155	42784.07967	1618.15656	0.70136	60563.00000	893.00000	42743.00000
1626.64516	0.15355	0.70218	60733.55595	878.59339	42907.75215	1624.34693	0.70190	60663.00000	874.00000	42840.00000
1632.83952	0.15310	0.70291	60986.21919	889.52033	43132.17361	1630.53730	0.70269	60896.00000	892.00000	43056.00000
1639.03387	0.15278	0.70342	61048.69415	866.62659	43200.12047	1636.72767	0.70322	61067.00000	874.00000	43203.00000
1645.22823	0.15240	0.70404	60863.78586	869.32764	43107.77509	1642.91804	0.70380	60949.00000	864.00000	43152.00000
1651.42258	0.15190	0.70486	59805.79968	899.77194	42420.01505	1649.10841	0.70451	60411.00000	887.00000	42822.00000
1657.61694	0.15139	0.70568	57584.63778	905.33477	40902.86634	1655.29878	0.70543	58428.00000	911.00000	41485.00000
1663.81129	0.15058	0.70699	56481.05190	890.63733	40193.31937	1661.48915	0.70630	56625.00000	891.00000	40256.00000
1670.00565	0.14904	0.70950	55048.67016	902.23167	39318.35436	1667.67952	0.70852	56028.00000	899.00000	39959.00000
1676.20000	0.14717	0.71257	51378.45954	875.98122	36864.79655	1673.86989	0.71130	52735.00000	893.00000	37768.00000
0.00000	0.00000	0.00000	0.00000	0.00000	0.00000	1680.06026	0.71542	48849.00000	859.00000	35192.00000
0.00000	0.00000	0.00000	0.00000	0.00000	0.00000	1686.25063	0.72077	44181.00000	908.00000	32098.00000
0.00000	0.00000	0.00000	0.00000	0.00000	0.00000	1692.44100	0.72077	44181.00000	908.00000	32098.00000
