'File ÌÇ_5_2016Ò»ÔÂ28_1059.xls
'Part ID ÌÇ_5
'Scan Created 2016/1/28 10:59:21
'Instrument S1-00205
'Version 1.5.7
'Integration Time 10100 µs
'Number of Scans 50
'Units Absorbance
'Thermistor 48.07
Wavelength	Absorbance	Normalized	100%	dark	Raw 1	Native Wvl	Native Norm	Native 100%	Native dark	Native 1
908.10000	0.47290	0.33659	3514.15951	877.71219	1764.03652	906.26400	0.32720	3596.00000	879.00000	1768.00000
914.29435	0.44009	0.36301	3281.25113	863.65831	1741.60431	912.45437	0.35642	3339.00000	870.00000	1750.00000
920.48871	0.40870	0.39021	3227.40662	877.32414	1794.41112	918.64474	0.37994	3216.00000	863.00000	1757.00000
926.68306	0.37185	0.42477	3307.28228	905.48228	1925.50265	924.83511	0.41621	3291.00000	910.00000	1901.00000
932.87742	0.34528	0.45157	3382.42130	864.28145	2001.52132	931.02548	0.44238	3345.00000	872.00000	1966.00000
939.07177	0.31315	0.48624	3608.15965	881.02078	2207.18606	937.21585	0.47610	3528.00000	871.00000	2136.00000
945.26613	0.29181	0.51073	3846.64039	885.69520	2397.74896	943.40622	0.50535	3789.00000	894.00000	2357.00000
951.46048	0.28212	0.52225	4004.44998	860.87297	2502.68955	949.59659	0.51907	3954.00000	860.00000	2466.00000
957.65484	0.27620	0.52942	4209.47249	887.01493	2645.94753	955.78696	0.52820	4143.00000	881.00000	2604.00000
963.84919	0.27645	0.52912	4374.85740	871.56767	2725.19815	961.97733	0.52963	4341.00000	882.00000	2714.00000
970.04355	0.28048	0.52423	4520.56130	886.05989	2791.61757	968.16770	0.52646	4456.00000	866.00000	2756.00000
976.23790	0.30156	0.49938	4717.71427	911.39747	2811.73627	974.35807	0.51079	4679.00000	926.00000	2843.00000
982.43226	0.32898	0.46883	4843.76664	857.92770	2726.94075	980.54844	0.47354	4787.00000	857.00000	2718.00000
988.62661	0.32103	0.47750	5076.97721	894.34516	2891.54142	986.73881	0.47257	5011.00000	891.00000	2838.00000
994.82097	0.30768	0.49240	5297.39601	869.00992	3049.44761	992.92918	0.48907	5222.00000	877.00000	3002.00000
1001.01532	0.30420	0.49636	5554.06756	873.41459	3196.82463	999.11955	0.49588	5480.00000	866.00000	3154.00000
1007.20968	0.30591	0.49441	5827.05497	883.56657	3327.44839	1005.30992	0.49556	5731.00000	888.00000	3288.00000
1013.40403	0.30548	0.49490	6120.28754	870.80251	3468.91454	1011.50029	0.49334	6045.00000	868.00000	3422.00000
1019.59839	0.29952	0.50174	6348.68404	901.94795	3634.75474	1017.69066	0.50028	6270.00000	893.00000	3583.00000
1025.79274	0.29889	0.50246	6618.61076	896.05363	3771.35711	1023.88103	0.50257	6540.00000	905.00000	3737.00000
1031.98710	0.29704	0.50461	6878.79036	877.64868	3906.04719	1030.07140	0.50321	6792.00000	876.00000	3853.00000
1038.18145	0.29307	0.50925	7153.19229	875.20158	4072.08247	1036.26177	0.50832	7075.00000	884.00000	4031.00000
1044.37581	0.29003	0.51282	7435.03734	854.54502	4229.36290	1042.45214	0.51111	7334.00000	852.00000	4165.00000
1050.57016	0.28528	0.51846	7778.63216	881.04291	4457.02687	1048.64251	0.51720	7678.00000	876.00000	4394.00000
1056.76452	0.28316	0.52100	8066.37003	871.22278	4619.96541	1054.83288	0.52014	7979.00000	877.00000	4571.00000
1062.95887	0.28014	0.52464	8367.94643	870.25694	4803.90140	1061.02325	0.52344	8268.00000	865.00000	4740.00000
1069.15323	0.27780	0.52747	8674.59951	877.92605	4990.37669	1067.21362	0.52687	8586.00000	882.00000	4941.00000
1075.34758	0.27603	0.52962	8958.19691	861.24829	5149.65106	1073.40399	0.52868	8863.00000	862.00000	5092.00000
1081.54194	0.27322	0.53306	9269.61857	868.88623	5346.89424	1079.59436	0.53208	9175.00000	868.00000	5288.00000
1087.73629	0.26983	0.53724	9599.77547	889.96693	5569.36764	1085.78473	0.53555	9485.00000	877.00000	5487.00000
1093.93065	0.26625	0.54169	9958.85840	903.23915	5808.43540	1091.97510	0.54081	9855.00000	911.00000	5748.00000
1100.12500	0.26495	0.54332	10287.04131	864.70017	5984.10511	1098.16547	0.54267	10175.00000	871.00000	5920.00000
1106.31935	0.26267	0.54618	10673.09117	870.26271	6224.29510	1104.35584	0.54524	10550.00000	868.00000	6147.00000
1112.51371	0.26032	0.54913	11054.17109	867.39097	6461.32532	1110.54621	0.54819	10934.00000	870.00000	6387.00000
1118.70806	0.25909	0.55069	11440.58269	866.80701	6689.63187	1116.73658	0.55057	11315.00000	864.00000	6618.00000
1124.90242	0.26082	0.54850	11853.47185	879.92340	6899.05169	1122.92695	0.54962	11719.00000	877.00000	6836.00000
1131.09677	0.26724	0.54046	12279.20991	877.48685	7039.40261	1129.11732	0.54395	12144.00000	880.00000	7007.00000
1137.29113	0.27725	0.52814	12658.45812	855.49825	7089.26297	1135.30769	0.53184	12547.00000	865.00000	7078.00000
1143.48548	0.28632	0.51722	13049.18681	852.30684	7160.66996	1141.49806	0.52085	12906.00000	845.00000	7127.00000
1149.67984	0.29880	0.50258	13533.98158	886.77209	7243.25392	1147.68843	0.50804	13382.00000	879.00000	7231.00000
1155.87419	0.32006	0.47857	13997.40073	876.37382	7155.10536	1153.87880	0.48758	13845.00000	885.00000	7204.00000
1162.06855	0.34390	0.45300	14503.46887	861.13988	7041.47897	1160.06917	0.45981	14335.00000	860.00000	7056.00000
1168.26290	0.35880	0.43772	15009.58309	885.01032	7067.66775	1166.25954	0.44233	14853.00000	877.00000	7059.00000
1174.45726	0.37496	0.42174	15471.50866	888.01740	7038.23456	1172.44991	0.42737	15322.00000	892.00000	7059.00000
1180.65161	0.39308	0.40450	15938.18293	858.48109	6958.40630	1178.64028	0.40973	15786.00000	869.00000	6981.00000
1186.84597	0.40946	0.38953	16436.20435	853.30650	6923.11044	1184.83065	0.39438	16267.00000	848.00000	6929.00000
1193.04032	0.42080	0.37949	16954.92806	876.34677	6978.06415	1191.02102	0.38143	16791.00000	872.00000	6944.00000
1199.23468	0.41981	0.38036	17462.35109	876.98642	7185.47283	1197.21139	0.37925	17291.00000	877.00000	7102.00000
1205.42903	0.41574	0.38394	17986.83670	869.01927	7440.96762	1203.40176	0.38310	17820.00000	874.00000	7366.00000
1211.62339	0.41162	0.38760	18479.84056	863.23699	7691.54219	1209.59213	0.38581	18318.00000	861.00000	7596.00000
1217.81774	0.40372	0.39471	19014.17361	874.89956	8034.48790	1215.78250	0.39240	18829.00000	873.00000	7919.00000
1224.01210	0.39505	0.40267	19594.72563	876.04482	8413.72841	1221.97287	0.39971	19406.00000	875.00000	8282.00000
1230.20645	0.38631	0.41086	20120.20026	872.48020	8780.46596	1228.16324	0.40865	19956.00000	876.00000	8673.00000
1236.40081	0.38340	0.41361	20649.23727	886.34799	9060.50151	1234.35361	0.41334	20461.00000	874.00000	8970.00000
1242.59516	0.38404	0.41301	21186.14180	892.43754	9273.89232	1240.54398	0.41321	21027.00000	904.00000	9219.00000
1248.78952	0.38328	0.41373	21639.43707	853.74756	9453.40913	1246.73435	0.41321	21481.00000	857.00000	9379.00000
1254.98387	0.38041	0.41648	22186.10389	887.90098	9758.22875	1252.92472	0.41546	21995.00000	874.00000	9649.00000
1261.17823	0.37983	0.41703	22744.98332	890.64324	10004.42274	1259.11509	0.41753	22568.00000	900.00000	9947.00000
1267.37258	0.38319	0.41382	23243.71070	844.15789	10113.49764	1265.30546	0.41483	23078.00000	857.00000	10075.00000
1273.56694	0.38226	0.41471	23813.43146	859.99157	10379.07859	1271.49583	0.41351	23605.00000	844.00000	10256.00000
1279.76129	0.37521	0.42150	24453.54449	898.95555	10827.07978	1277.68620	0.41898	24247.00000	895.00000	10679.00000
1285.95565	0.36721	0.42933	25039.29282	882.87107	11253.85953	1283.87657	0.42668	24843.00000	888.00000	11109.00000
1292.15000	0.35931	0.43721	25633.20976	874.48479	11699.22937	1290.06694	0.43458	25432.00000	877.00000	11548.00000
1298.34435	0.35275	0.44387	26275.57944	875.36170	12149.69556	1296.25731	0.44193	26049.00000	873.00000	11999.00000
1304.53871	0.34974	0.44695	26910.28272	864.72671	12505.69597	1302.44769	0.44640	26712.00000	874.00000	12408.00000
1310.73306	0.34978	0.44691	27539.76334	865.28161	12786.35421	1308.63806	0.44707	27304.00000	854.00000	12679.00000
1316.92742	0.35161	0.44504	28270.79252	884.98210	13072.57723	1314.82843	0.44599	28032.00000	890.00000	12995.00000
1323.12177	0.35606	0.44050	28955.06915	860.68820	13236.24561	1321.01880	0.44229	28719.00000	862.00000	13183.00000
1329.31613	0.36406	0.43245	29633.32179	868.03484	13307.59961	1327.20917	0.43578	29411.00000	869.00000	13307.00000
1335.51048	0.37744	0.41933	30302.79696	861.31771	13207.09173	1333.39954	0.42431	30064.00000	861.00000	13252.00000
1341.70484	0.39607	0.40173	31040.63710	883.35260	12998.27763	1339.58991	0.40826	30788.00000	873.00000	13086.00000
1347.89919	0.42005	0.38014	31710.62252	886.82909	12604.45492	1345.78028	0.38786	31498.00000	894.00000	12764.00000
1354.09355	0.44658	0.35762	32368.46417	858.22619	12126.40301	1351.97065	0.36514	32123.00000	864.00000	12278.00000
1360.28790	0.47091	0.33813	33079.41609	863.88248	11757.48236	1358.16102	0.34434	32852.00000	860.00000	11876.00000
1366.48226	0.49240	0.32181	33719.60962	862.84716	11436.03429	1364.35139	0.32724	33491.00000	867.00000	11543.00000
1372.67661	0.50809	0.31039	34419.13569	848.00380	11268.45247	1370.54176	0.31323	34178.00000	851.00000	11290.00000
1378.87097	0.51078	0.30847	34997.78982	865.89108	11394.73704	1376.73213	0.30824	34829.00000	855.00000	11327.00000
1385.06532	0.50871	0.30995	35282.55609	871.96034	11537.40661	1382.92250	0.30972	35216.00000	879.00000	11514.00000
1391.25968	0.51114	0.30822	35454.56849	868.59113	11528.71183	1389.11287	0.30918	35383.00000	859.00000	11533.00000
1397.45403	0.51950	0.30234	35619.60134	886.37628	11387.78440	1395.30324	0.30503	35583.00000	891.00000	11473.00000
1403.64839	0.53746	0.29010	35834.55471	865.31191	11009.98101	1401.49361	0.29517	35714.00000	866.00000	11152.00000
1409.84274	0.57038	0.26892	36489.35769	873.82043	10451.22744	1407.68398	0.27756	36214.00000	874.00000	10683.00000
1416.03710	0.62240	0.23856	37454.71523	877.22955	9603.06367	1413.87435	0.24985	37098.00000	872.00000	9923.00000
1422.23145	0.69022	0.20407	38501.95566	886.60375	8563.35940	1420.06472	0.21638	38137.00000	888.00000	8948.00000
1428.42581	0.77715	0.16705	39622.23895	874.12429	7345.81096	1426.25509	0.18032	39208.00000	877.00000	7789.00000
1434.62016	0.86420	0.13671	40761.26708	872.53526	6326.39452	1432.44546	0.14513	40388.00000	873.00000	6608.00000
1440.81452	0.88623	0.12995	41685.67119	872.92918	6176.39426	1438.63583	0.12935	41375.00000	872.00000	6111.00000
1447.00887	0.85178	0.14068	42697.97010	892.09592	6773.73040	1444.82620	0.13631	42303.00000	882.00000	6528.00000
1453.20323	0.82589	0.14932	43743.69350	881.19502	7280.78034	1451.01657	0.14736	43420.00000	897.00000	7163.00000
1459.39758	0.82429	0.14987	44616.30730	861.83262	7419.43062	1457.20694	0.15024	44284.00000	854.00000	7379.00000
1465.59194	0.83425	0.14647	45681.51347	893.65188	7453.53122	1463.39731	0.14803	45294.00000	891.00000	7464.00000
1471.78629	0.84972	0.14135	46691.44736	880.41136	7355.72292	1469.58768	0.14316	46358.00000	883.00000	7393.00000
1477.98065	0.86428	0.13669	47539.84378	864.96700	7244.68256	1475.77805	0.13826	47244.00000	875.00000	7286.00000
1484.17500	0.87526	0.13327	48453.02745	858.97393	7202.03409	1481.96842	0.13427	48107.00000	852.00000	7197.00000
1490.36935	0.88235	0.13111	49314.35954	885.82004	7235.47822	1488.15879	0.13185	49049.00000	881.00000	7232.00000
1496.56371	0.88817	0.12937	50001.49019	880.23876	7234.97251	1494.34916	0.12991	49741.00000	883.00000	7230.00000
1502.75806	0.89192	0.12826	50705.77350	864.52184	7257.00801	1500.53953	0.12860	50474.00000	872.00000	7251.00000
1508.95242	0.89276	0.12801	51385.78695	891.73536	7355.58495	1506.72990	0.12794	51118.00000	869.00000	7298.00000
1515.14677	0.89326	0.12786	52107.85403	893.71978	7441.83163	1512.92027	0.12809	51872.00000	917.00000	7444.00000
1521.34113	0.89431	0.12755	52815.89525	851.69957	7480.04166	1519.11064	0.12744	52530.00000	844.00000	7431.00000
1527.53548	0.89200	0.12823	53548.61369	896.26537	7647.88486	1525.30101	0.12805	53323.00000	892.00000	7606.00000
1533.72984	0.88930	0.12903	54149.95370	878.59624	7752.42583	1531.49138	0.12859	53910.00000	882.00000	7701.00000
1539.92419	0.88405	0.13060	54832.12801	868.84378	7916.55278	1537.68175	0.13005	54600.00000	876.00000	7863.00000
1546.11855	0.87931	0.13203	55451.13851	864.00141	8071.45115	1543.87212	0.13151	55220.00000	859.00000	8008.00000
1552.31290	0.87564	0.13316	56042.33834	881.37311	8226.34292	1550.06249	0.13285	55845.00000	879.00000	8181.00000
1558.50726	0.87495	0.13337	56662.34212	881.97129	8321.32141	1556.25286	0.13340	56406.00000	880.00000	8287.00000
1564.70161	0.87784	0.13248	57241.63462	881.81730	8348.61280	1562.44323	0.13296	57084.00000	885.00000	8357.00000
1570.89597	0.88254	0.13106	57652.97230	868.16681	8310.26126	1568.63360	0.13152	57470.00000	872.00000	8316.00000
1577.09032	0.88576	0.13009	58206.47218	874.43948	8332.77620	1574.82397	0.13041	58018.00000	869.00000	8322.00000
1583.28468	0.88801	0.12942	58673.40818	887.42953	8365.90758	1581.01434	0.12961	58502.00000	885.00000	8353.00000
1589.47903	0.88700	0.12972	59041.87130	888.83630	8432.23431	1587.20471	0.12941	58934.00000	888.00000	8400.00000
1595.67339	0.88100	0.13152	59358.10218	876.53006	8568.28730	1593.39508	0.13072	59218.00000	885.00000	8510.00000
1601.86774	0.86972	0.13498	59778.17203	883.72242	8833.50286	1599.58545	0.13346	59632.00000	871.00000	8713.00000
1608.06210	0.85478	0.13971	60103.05486	896.34115	9167.89795	1605.77582	0.13796	59993.00000	904.00000	9056.00000
1614.25645	0.83897	0.14489	60403.71328	879.81794	9504.07736	1611.96619	0.14283	60288.00000	876.00000	9362.00000
1620.45081	0.82242	0.15051	60606.54759	887.56155	9876.04272	1618.15656	0.14850	60563.00000	893.00000	9754.00000
1626.64516	0.80652	0.15613	60733.55595	878.59339	10223.71090	1624.34693	0.15394	60663.00000	874.00000	10078.00000
1632.83952	0.79022	0.16210	60986.21919	889.52033	10631.22608	1630.53730	0.15994	60896.00000	892.00000	10489.00000
1639.03387	0.77584	0.16756	61048.69415	866.62659	10950.26643	1636.72767	0.16557	61067.00000	874.00000	10840.00000
1645.22823	0.76296	0.17260	60863.78586	869.32764	11224.61261	1642.91804	0.17077	60949.00000	864.00000	11125.00000
1651.42258	0.75132	0.17729	59805.79968	899.77194	11342.82019	1649.10841	0.17556	60411.00000	887.00000	11337.00000
1657.61694	0.74159	0.18131	57584.63778	905.33477	11181.34828	1655.29878	0.17995	58428.00000	911.00000	11261.00000
1663.81129	0.73245	0.18516	56481.05190	890.63733	11185.03502	1661.48915	0.18357	56625.00000	891.00000	11122.00000
1670.00565	0.72195	0.18969	55048.67016	902.23167	11172.02291	1667.67952	0.18803	56028.00000	899.00000	11265.00000
1676.20000	0.71310	0.19360	51378.45954	875.98122	10654.14587	1673.86989	0.19222	52735.00000	893.00000	10858.00000
0.00000	0.00000	0.00000	0.00000	0.00000	0.00000	1680.06026	0.19562	48849.00000	859.00000	10247.00000
0.00000	0.00000	0.00000	0.00000	0.00000	0.00000	1686.25063	0.19781	44181.00000	908.00000	9468.00000
0.00000	0.00000	0.00000	0.00000	0.00000	0.00000	1692.44100	0.19781	44181.00000	908.00000	9468.00000
