'File ÌÇ_2_2016Ò»ÔÂ28_1059.xls
'Part ID ÌÇ_2
'Scan Created 2016/1/28 10:59:10
'Instrument S1-00205
'Version 1.5.7
'Integration Time 10100 µs
'Number of Scans 50
'Units Absorbance
'Thermistor 48.07
Wavelength	Absorbance	Normalized	100%	dark	Raw 1	Native Wvl	Native Norm	Native 100%	Native dark	Native 1
908.10000	0.46324	0.34416	3514.15951	877.71219	1784.02988	906.26400	0.33493	3596.00000	879.00000	1789.00000
914.29435	0.43045	0.37115	3281.25113	863.65831	1761.25422	912.45437	0.36412	3339.00000	870.00000	1769.00000
920.48871	0.39821	0.39976	3227.40662	877.32414	1816.85379	918.64474	0.38929	3216.00000	863.00000	1779.00000
926.68306	0.36185	0.43466	3307.28228	905.48228	1949.25648	924.83511	0.42587	3291.00000	910.00000	1924.00000
932.87742	0.33442	0.46300	3382.42130	864.28145	2030.32002	931.02548	0.45330	3345.00000	872.00000	1993.00000
939.07177	0.30199	0.49890	3608.15965	881.02078	2241.66996	937.21585	0.48852	3528.00000	871.00000	2169.00000
945.26613	0.28050	0.52420	3846.64039	885.69520	2437.69292	943.40622	0.51848	3789.00000	894.00000	2395.00000
951.46048	0.27043	0.53651	4004.44998	860.87297	2547.47803	949.59659	0.53329	3954.00000	860.00000	2510.00000
957.65484	0.26471	0.54362	4209.47249	887.01493	2693.15047	955.78696	0.54231	4143.00000	881.00000	2650.00000
963.84919	0.26483	0.54346	4374.85740	871.56767	2775.40936	961.97733	0.54409	4341.00000	882.00000	2764.00000
970.04355	0.26909	0.53816	4520.56130	886.05989	2842.26587	968.16770	0.54039	4456.00000	866.00000	2806.00000
976.23790	0.28998	0.51289	4717.71427	911.39747	2863.10427	974.35807	0.52465	4679.00000	926.00000	2895.00000
982.43226	0.31778	0.48109	4843.76664	857.92770	2775.80496	980.54844	0.48601	4787.00000	857.00000	2767.00000
988.62661	0.30973	0.49008	5076.97721	894.34516	2944.17037	986.73881	0.48495	5011.00000	891.00000	2889.00000
994.82097	0.29611	0.50570	5297.39601	869.00992	3108.36410	992.92918	0.50219	5222.00000	877.00000	3059.00000
1001.01532	0.29268	0.50971	5554.06756	873.41459	3259.27421	999.11955	0.50932	5480.00000	866.00000	3216.00000
1007.20968	0.29433	0.50777	5827.05497	883.56657	3393.55172	1005.30992	0.50878	5731.00000	888.00000	3352.00000
1013.40403	0.29369	0.50852	6120.28754	870.80251	3540.40285	1011.50029	0.50705	6045.00000	868.00000	3493.00000
1019.59839	0.28827	0.51491	6348.68404	901.94795	3706.48739	1017.69066	0.51348	6270.00000	893.00000	3654.00000
1025.79274	0.28752	0.51580	6618.61076	896.05363	3847.66150	1023.88103	0.51588	6540.00000	905.00000	3812.00000
1031.98710	0.28565	0.51802	6878.79036	877.64868	3986.53908	1030.07140	0.51657	6792.00000	876.00000	3932.00000
1038.18145	0.28163	0.52284	7153.19229	875.20158	4157.39412	1036.26177	0.52189	7075.00000	884.00000	4115.00000
1044.37581	0.27868	0.52641	7435.03734	854.54502	4318.76825	1042.45214	0.52468	7334.00000	852.00000	4253.00000
1050.57016	0.27393	0.53220	7778.63216	881.04291	4551.77496	1048.64251	0.53087	7678.00000	876.00000	4487.00000
1056.76452	0.27160	0.53506	8066.37003	871.22278	4721.10576	1054.83288	0.53407	7979.00000	877.00000	4670.00000
1062.95887	0.26861	0.53876	8367.94643	870.25694	4909.70123	1061.02325	0.53762	8268.00000	865.00000	4845.00000
1069.15323	0.26652	0.54135	8674.59951	877.92605	5098.58075	1067.21362	0.54076	8586.00000	882.00000	5048.00000
1075.34758	0.26466	0.54368	8958.19691	861.24829	5263.43938	1073.40399	0.54268	8863.00000	862.00000	5204.00000
1081.54194	0.26171	0.54738	9269.61857	868.88623	5467.19546	1079.59436	0.54629	9175.00000	868.00000	5406.00000
1087.73629	0.25825	0.55176	9599.77547	889.96693	5695.81562	1085.78473	0.55007	9485.00000	877.00000	5612.00000
1093.93065	0.25484	0.55611	9958.85840	903.23915	5939.00667	1091.97510	0.55523	9855.00000	911.00000	5877.00000
1100.12500	0.25345	0.55789	10287.04131	864.70017	6121.41853	1098.16547	0.55718	10175.00000	871.00000	6055.00000
1106.31935	0.25116	0.56084	10673.09117	870.26271	6368.02051	1104.35584	0.55990	10550.00000	868.00000	6289.00000
1112.51371	0.24893	0.56373	11054.17109	867.39097	6610.02002	1110.54621	0.56280	10934.00000	870.00000	6534.00000
1118.70806	0.24766	0.56538	11440.58269	866.80701	6844.92063	1116.73658	0.56521	11315.00000	864.00000	6771.00000
1124.90242	0.24930	0.56324	11853.47185	879.92340	7060.82953	1122.92695	0.56438	11719.00000	877.00000	6996.00000
1131.09677	0.25566	0.55506	12279.20991	877.48685	7205.91051	1129.11732	0.55859	12144.00000	880.00000	7172.00000
1137.29113	0.26561	0.54249	12658.45812	855.49825	7258.71221	1135.30769	0.54631	12547.00000	865.00000	7247.00000
1143.48548	0.27472	0.53122	13049.18681	852.30684	7331.41057	1141.49806	0.53495	12906.00000	845.00000	7297.00000
1149.67984	0.28708	0.51632	13533.98158	886.77209	7417.14859	1147.68843	0.52187	13382.00000	879.00000	7404.00000
1155.87419	0.30842	0.49157	13997.40073	876.37382	7325.60919	1153.87880	0.50093	13845.00000	885.00000	7377.00000
1162.06855	0.33234	0.46522	14503.46887	861.13988	7208.22265	1160.06917	0.47213	14335.00000	860.00000	7222.00000
1168.26290	0.34706	0.44972	15009.58309	885.01032	7237.08778	1166.25954	0.45449	14853.00000	877.00000	7229.00000
1174.45726	0.36343	0.43308	15471.50866	888.01740	7203.66649	1172.44991	0.43888	15322.00000	892.00000	7225.00000
1180.65161	0.38158	0.41536	15938.18293	858.48109	7122.10148	1178.64028	0.42080	15786.00000	869.00000	7146.00000
1186.84597	0.39823	0.39973	16436.20435	853.30650	7082.05592	1184.83065	0.40476	16267.00000	848.00000	7089.00000
1193.04032	0.40956	0.38944	16954.92806	876.34677	7138.07380	1191.02102	0.39142	16791.00000	872.00000	7103.00000
1199.23468	0.40848	0.39041	17462.35109	876.98642	7352.25624	1197.21139	0.38924	17291.00000	877.00000	7266.00000
1205.42903	0.40428	0.39420	17986.83670	869.01927	7616.66156	1203.40176	0.39331	17820.00000	874.00000	7539.00000
1211.62339	0.40008	0.39803	18479.84056	863.23699	7875.43337	1209.59213	0.39617	18318.00000	861.00000	7777.00000
1217.81774	0.39218	0.40534	19014.17361	874.89956	8227.25187	1215.78250	0.40299	18829.00000	873.00000	8109.00000
1224.01210	0.38351	0.41351	19594.72563	876.04482	8616.64399	1221.97287	0.41045	19406.00000	875.00000	8481.00000
1230.20645	0.37471	0.42198	20120.20026	872.48020	8994.51941	1228.16324	0.41971	19956.00000	876.00000	8884.00000
1236.40081	0.37180	0.42482	20649.23727	886.34799	9281.97321	1234.35361	0.42452	20461.00000	874.00000	9189.00000
1242.59516	0.37241	0.42422	21186.14180	892.43754	9501.43063	1240.54398	0.42444	21027.00000	904.00000	9445.00000
1248.78952	0.37175	0.42487	21639.43707	853.74756	9684.91090	1246.73435	0.42436	21481.00000	857.00000	9609.00000
1254.98387	0.36886	0.42770	22186.10389	887.90098	9997.34479	1252.92472	0.42664	21995.00000	874.00000	9885.00000
1261.17823	0.36823	0.42832	22744.98332	890.64324	10251.12613	1259.11509	0.42884	22568.00000	900.00000	10192.00000
1267.37258	0.37160	0.42501	23243.71070	844.15789	10364.15634	1265.30546	0.42604	23078.00000	857.00000	10324.00000
1273.56694	0.37067	0.42592	23813.43146	859.99157	10636.42931	1271.49583	0.42472	23605.00000	844.00000	10511.00000
1279.76129	0.36369	0.43282	24453.54449	898.95555	11093.85826	1277.68620	0.43024	24247.00000	895.00000	10942.00000
1285.95565	0.35559	0.44097	25039.29282	882.87107	11535.12904	1283.87657	0.43820	24843.00000	888.00000	11385.00000
1292.15000	0.34755	0.44921	25633.20976	874.48479	11996.41973	1290.06694	0.44647	25432.00000	877.00000	11840.00000
1298.34435	0.34099	0.45605	26275.57944	875.36170	12459.15153	1296.25731	0.45408	26049.00000	873.00000	12305.00000
1304.53871	0.33805	0.45915	26910.28272	864.72671	12823.38846	1302.44769	0.45859	26712.00000	874.00000	12723.00000
1310.73306	0.33808	0.45912	27539.76334	865.28161	13112.08949	1308.63806	0.45928	27304.00000	854.00000	13002.00000
1316.92742	0.33979	0.45730	28270.79252	884.98210	13408.58858	1314.82843	0.45822	28032.00000	890.00000	13327.00000
1323.12177	0.34412	0.45277	28955.06915	860.68820	13581.10638	1321.01880	0.45461	28719.00000	862.00000	13526.00000
1329.31613	0.35214	0.44449	29633.32179	868.03484	13653.83205	1327.20917	0.44790	29411.00000	869.00000	13653.00000
1335.51048	0.36547	0.43106	30302.79696	861.31771	13552.23832	1333.39954	0.43615	30064.00000	861.00000	13598.00000
1341.70484	0.38414	0.41291	31040.63710	883.35260	13335.51199	1339.58991	0.41966	30788.00000	873.00000	13427.00000
1347.89919	0.40816	0.39070	31710.62252	886.82909	12929.89057	1345.78028	0.39861	31498.00000	894.00000	13093.00000
1354.09355	0.43452	0.36769	32368.46417	858.22619	12443.79857	1351.97065	0.37538	32123.00000	864.00000	12598.00000
1360.28790	0.45887	0.34764	33079.41609	863.88248	12063.74083	1358.16102	0.35406	32852.00000	860.00000	12187.00000
1366.48226	0.48051	0.33074	33719.60962	862.84716	11729.65442	1364.35139	0.33635	33491.00000	867.00000	11840.00000
1372.67661	0.49610	0.31908	34419.13569	848.00380	11559.99694	1370.54176	0.32196	34178.00000	851.00000	11581.00000
1378.87097	0.49868	0.31719	34997.78982	865.89108	11692.16036	1376.73213	0.31692	34829.00000	855.00000	11622.00000
1385.06532	0.49650	0.31878	35282.55609	871.96034	11841.48180	1382.92250	0.31852	35216.00000	879.00000	11816.00000
1391.25968	0.49867	0.31720	35454.56849	868.59113	11839.21147	1389.11287	0.31810	35383.00000	859.00000	11841.00000
1397.45403	0.50660	0.31146	35619.60134	886.37628	11704.34481	1395.30324	0.31411	35583.00000	891.00000	11788.00000
1403.64839	0.52415	0.29912	35834.55471	865.31191	11325.63380	1401.49361	0.30426	35714.00000	866.00000	11469.00000
1409.84274	0.55675	0.27749	36489.35769	873.82043	10756.55143	1407.68398	0.28633	36214.00000	874.00000	10993.00000
1416.03710	0.60836	0.24640	37454.71523	877.22955	9889.84339	1413.87435	0.25796	37098.00000	872.00000	10217.00000
1422.23145	0.67570	0.21101	38501.95566	886.60375	8824.38140	1420.06472	0.22366	38137.00000	888.00000	9219.00000
1428.42581	0.76228	0.17287	39622.23895	874.12429	7571.08569	1426.25509	0.18656	39208.00000	877.00000	8028.00000
1434.62016	0.84885	0.14163	40761.26708	872.53526	6522.56749	1432.44546	0.15027	40388.00000	873.00000	6811.00000
1440.81452	0.87055	0.13473	41685.67119	872.92918	6371.43176	1438.63583	0.13411	41375.00000	872.00000	6304.00000
1447.00887	0.83629	0.14578	42697.97010	892.09592	6987.28379	1444.82620	0.14126	42303.00000	882.00000	6733.00000
1453.20323	0.81029	0.15478	43743.69350	881.19502	7514.90226	1451.01657	0.15274	43420.00000	897.00000	7392.00000
1459.39758	0.80878	0.15532	44616.30730	861.83262	7657.94888	1457.20694	0.15572	44284.00000	854.00000	7617.00000
1465.59194	0.81898	0.15171	45681.51347	893.65188	7688.23802	1463.39731	0.15337	45294.00000	891.00000	7701.00000
1471.78629	0.83467	0.14633	46691.44736	880.41136	7584.04971	1469.58768	0.14821	46358.00000	883.00000	7623.00000
1477.98065	0.84911	0.14154	47539.84378	864.96700	7471.44212	1475.77805	0.14316	47244.00000	875.00000	7513.00000
1484.17500	0.86012	0.13800	48453.02745	858.97393	7426.93356	1481.96842	0.13905	48107.00000	852.00000	7423.00000
1490.36935	0.86754	0.13566	49314.35954	885.82004	7455.76373	1488.15879	0.13646	49049.00000	881.00000	7454.00000
1496.56371	0.87356	0.13380	50001.49019	880.23876	7452.49924	1494.34916	0.13437	49741.00000	883.00000	7448.00000
1502.75806	0.87747	0.13260	50705.77350	864.52184	7473.21945	1500.53953	0.13298	50474.00000	872.00000	7468.00000
1508.95242	0.87853	0.13227	51385.78695	891.73536	7570.83337	1506.72990	0.13222	51118.00000	869.00000	7513.00000
1515.14677	0.87903	0.13212	52107.85403	893.71978	7660.03825	1512.92027	0.13235	51872.00000	917.00000	7661.00000
1521.34113	0.88009	0.13180	52815.89525	851.69957	7700.61001	1519.11064	0.13170	52530.00000	844.00000	7651.00000
1527.53548	0.87801	0.13243	53548.61369	896.26537	7868.99443	1525.30101	0.13227	53323.00000	892.00000	7827.00000
1533.72984	0.87557	0.13318	54149.95370	878.59624	7973.20436	1531.49138	0.13276	53910.00000	882.00000	7922.00000
1539.92419	0.87043	0.13476	54832.12801	868.84378	8141.09521	1537.68175	0.13419	54600.00000	876.00000	8085.00000
1546.11855	0.86555	0.13629	55451.13851	864.00141	8303.51944	1543.87212	0.13574	55220.00000	859.00000	8238.00000
1552.31290	0.86198	0.13741	56042.33834	881.37311	8461.10259	1550.06249	0.13710	55845.00000	879.00000	8415.00000
1558.50726	0.86134	0.13761	56662.34212	881.97129	8558.05969	1556.25286	0.13765	56406.00000	880.00000	8523.00000
1564.70161	0.86417	0.13672	57241.63462	881.81730	8587.27003	1562.44323	0.13719	57084.00000	885.00000	8595.00000
1570.89597	0.86869	0.13530	57652.97230	868.16681	8551.27235	1568.63360	0.13576	57470.00000	872.00000	8556.00000
1577.09032	0.87191	0.13430	58206.47218	874.43948	8574.31141	1574.82397	0.13465	58018.00000	869.00000	8564.00000
1583.28468	0.87418	0.13361	58673.40818	887.42953	8607.94260	1581.01434	0.13380	58502.00000	885.00000	8594.00000
1589.47903	0.87334	0.13386	59041.87130	888.83630	8673.37346	1587.20471	0.13360	58934.00000	888.00000	8643.00000
1595.67339	0.86770	0.13561	59358.10218	876.53006	8807.39895	1593.39508	0.13480	59218.00000	885.00000	8748.00000
1601.86774	0.85660	0.13912	59778.17203	883.72242	9077.33756	1599.58545	0.13759	59632.00000	871.00000	8956.00000
1608.06210	0.84198	0.14389	60103.05486	896.34115	9415.46973	1605.77582	0.14211	59993.00000	904.00000	9301.00000
1614.25645	0.82619	0.14921	60403.71328	879.81794	9761.66043	1611.96619	0.14711	60288.00000	876.00000	9616.00000
1620.45081	0.80975	0.15497	60606.54759	887.56155	10142.11688	1618.15656	0.15291	60563.00000	893.00000	10017.00000
1626.64516	0.79387	0.16074	60733.55595	878.59339	10499.94790	1624.34693	0.15849	60663.00000	874.00000	10350.00000
1632.83952	0.77766	0.16685	60986.21919	889.52033	10916.99818	1630.53730	0.16466	60896.00000	892.00000	10772.00000
1639.03387	0.76339	0.17243	61048.69415	866.62659	11243.67140	1636.72767	0.17039	61067.00000	874.00000	11130.00000
1645.22823	0.75053	0.17761	60863.78586	869.32764	11525.46810	1642.91804	0.17575	60949.00000	864.00000	11424.00000
1651.42258	0.73904	0.18237	59805.79968	899.77194	11642.37441	1649.10841	0.18062	60411.00000	887.00000	11638.00000
1657.61694	0.72933	0.18649	57584.63778	905.33477	11475.44209	1655.29878	0.18509	58428.00000	911.00000	11557.00000
1663.81129	0.72022	0.19045	56481.05190	890.63733	11479.06979	1661.48915	0.18883	56625.00000	891.00000	11415.00000
1670.00565	0.70985	0.19505	55048.67016	902.23167	11462.27193	1667.67952	0.19336	56028.00000	899.00000	11559.00000
1676.20000	0.70101	0.19906	51378.45954	875.98122	10930.28352	1673.86989	0.19764	52735.00000	893.00000	11139.00000
0.00000	0.00000	0.00000	0.00000	0.00000	0.00000	1680.06026	0.20117	48849.00000	859.00000	10513.00000
0.00000	0.00000	0.00000	0.00000	0.00000	0.00000	1686.25063	0.20341	44181.00000	908.00000	9710.00000
0.00000	0.00000	0.00000	0.00000	0.00000	0.00000	1692.44100	0.20341	44181.00000	908.00000	9710.00000
