'File ÌÇ_3_2016Ò»ÔÂ28_1059.xls
'Part ID ÌÇ_3
'Scan Created 2016/1/28 10:59:14
'Instrument S1-00205
'Version 1.5.7
'Integration Time 10100 µs
'Number of Scans 50
'Units Absorbance
'Thermistor 48.07
Wavelength	Absorbance	Normalized	100%	dark	Raw 1	Native Wvl	Native Norm	Native 100%	Native dark	Native 1
908.10000	0.46930	0.33939	3514.15951	877.71219	1771.45402	906.26400	0.33014	3596.00000	879.00000	1776.00000
914.29435	0.43636	0.36614	3281.25113	863.65831	1749.15556	912.45437	0.35925	3339.00000	870.00000	1757.00000
920.48871	0.40449	0.39401	3227.40662	877.32414	1803.34483	918.64474	0.38377	3216.00000	863.00000	1766.00000
926.68306	0.36755	0.42899	3307.28228	905.48228	1935.65813	924.83511	0.41999	3291.00000	910.00000	1910.00000
932.87742	0.33956	0.45755	3382.42130	864.28145	2016.56957	931.02548	0.44804	3345.00000	872.00000	1980.00000
939.07177	0.30787	0.49219	3608.15965	881.02078	2223.39219	937.21585	0.48212	3528.00000	871.00000	2152.00000
945.26613	0.28616	0.51741	3846.64039	885.69520	2417.58437	943.40622	0.51157	3789.00000	894.00000	2375.00000
951.46048	0.27569	0.53005	4004.44998	860.87297	2527.16419	949.59659	0.52683	3954.00000	860.00000	2490.00000
957.65484	0.27026	0.53671	4209.47249	887.01493	2670.18898	955.78696	0.53556	4143.00000	881.00000	2628.00000
963.84919	0.27070	0.53616	4374.85740	871.56767	2749.85242	961.97733	0.53686	4341.00000	882.00000	2739.00000
970.04355	0.27488	0.53103	4520.56130	886.05989	2816.37764	968.16770	0.53315	4456.00000	866.00000	2780.00000
976.23790	0.29543	0.50649	4717.71427	911.39747	2838.73961	974.35807	0.51799	4679.00000	926.00000	2870.00000
982.43226	0.32296	0.47537	4843.76664	857.92770	2753.04923	980.54844	0.48015	4787.00000	857.00000	2744.00000
988.62661	0.31518	0.48398	5076.97721	894.34516	2918.60410	986.73881	0.47913	5011.00000	891.00000	2865.00000
994.82097	0.30184	0.49906	5297.39601	869.00992	3079.03484	992.92918	0.49551	5222.00000	877.00000	3030.00000
1001.01532	0.29807	0.50342	5554.06756	873.41459	3229.77680	999.11955	0.50303	5480.00000	866.00000	3187.00000
1007.20968	0.29972	0.50151	5827.05497	883.56657	3362.61462	1005.30992	0.50237	5731.00000	888.00000	3321.00000
1013.40403	0.29859	0.50282	6120.28754	870.80251	3510.43228	1011.50029	0.50126	6045.00000	868.00000	3463.00000
1019.59839	0.29322	0.50907	6348.68404	901.94795	3674.73695	1017.69066	0.50772	6270.00000	893.00000	3623.00000
1025.79274	0.29274	0.50964	6618.61076	896.05363	3812.39274	1023.88103	0.50985	6540.00000	905.00000	3778.00000
1031.98710	0.29112	0.51154	6878.79036	877.64868	3947.68178	1030.07140	0.51014	6792.00000	876.00000	3894.00000
1038.18145	0.28700	0.51642	7153.19229	875.20158	4117.06882	1036.26177	0.51543	7075.00000	884.00000	4075.00000
1044.37581	0.28390	0.52011	7435.03734	854.54502	4277.36518	1042.45214	0.51836	7334.00000	852.00000	4212.00000
1050.57016	0.27918	0.52579	7778.63216	881.04291	4507.59402	1048.64251	0.52455	7678.00000	876.00000	4444.00000
1056.76452	0.27704	0.52839	8066.37003	871.22278	4673.16580	1054.83288	0.52746	7979.00000	877.00000	4623.00000
1062.95887	0.27392	0.53220	8367.94643	870.25694	4860.58161	1061.02325	0.53100	8268.00000	865.00000	4796.00000
1069.15323	0.27182	0.53478	8674.59951	877.92605	5047.35480	1067.21362	0.53427	8586.00000	882.00000	4998.00000
1075.34758	0.27006	0.53696	8958.19691	861.24829	5209.06385	1073.40399	0.53593	8863.00000	862.00000	5150.00000
1081.54194	0.26706	0.54068	9269.61857	868.88623	5410.88413	1079.59436	0.53967	9175.00000	868.00000	5351.00000
1087.73629	0.26380	0.54476	9599.77547	889.96693	5634.83374	1085.78473	0.54310	9485.00000	877.00000	5552.00000
1093.93065	0.26007	0.54945	9958.85840	903.23915	5878.70568	1091.97510	0.54841	9855.00000	911.00000	5816.00000
1100.12500	0.25856	0.55137	10287.04131	864.70017	6059.91673	1098.16547	0.55073	10175.00000	871.00000	5995.00000
1106.31935	0.25650	0.55398	10673.09117	870.26271	6300.82208	1104.35584	0.55309	10550.00000	868.00000	6223.00000
1112.51371	0.25412	0.55703	11054.17109	867.39097	6541.81811	1110.54621	0.55604	10934.00000	870.00000	6466.00000
1118.70806	0.25275	0.55879	11440.58269	866.80701	6775.27307	1116.73658	0.55861	11315.00000	864.00000	6702.00000
1124.90242	0.25451	0.55653	11853.47185	879.92340	6987.18840	1122.92695	0.55774	11719.00000	877.00000	6924.00000
1131.09677	0.26104	0.54823	12279.20991	877.48685	7128.04810	1129.11732	0.55176	12144.00000	880.00000	7095.00000
1137.29113	0.27090	0.53592	12658.45812	855.49825	7181.18058	1135.30769	0.53963	12547.00000	865.00000	7169.00000
1143.48548	0.28011	0.52467	13049.18681	852.30684	7251.47950	1141.49806	0.52848	12906.00000	845.00000	7219.00000
1149.67984	0.29285	0.50951	13533.98158	886.77209	7330.95906	1147.68843	0.51508	13382.00000	879.00000	7319.00000
1155.87419	0.31404	0.48524	13997.40073	876.37382	7242.69213	1153.87880	0.49437	13845.00000	885.00000	7292.00000
1162.06855	0.33778	0.45943	14503.46887	861.13988	7129.28401	1160.06917	0.46627	14335.00000	860.00000	7143.00000
1168.26290	0.35268	0.44394	15009.58309	885.01032	7155.42933	1166.25954	0.44870	14853.00000	877.00000	7148.00000
1174.45726	0.36911	0.42745	15471.50866	888.01740	7121.64154	1172.44991	0.43319	15322.00000	892.00000	7143.00000
1180.65161	0.38730	0.40992	15938.18293	858.48109	7040.16930	1178.64028	0.41530	15786.00000	869.00000	7064.00000
1186.84597	0.40401	0.39445	16436.20435	853.30650	6999.77466	1184.83065	0.39944	16267.00000	848.00000	7007.00000
1193.04032	0.41537	0.38426	16954.92806	876.34677	7054.87040	1191.02102	0.38621	16791.00000	872.00000	7020.00000
1199.23468	0.41421	0.38529	17462.35109	876.98642	7267.28816	1197.21139	0.38412	17291.00000	877.00000	7182.00000
1205.42903	0.41009	0.38896	17986.83670	869.01927	7526.94000	1203.40176	0.38812	17820.00000	874.00000	7451.00000
1211.62339	0.40596	0.39268	18479.84056	863.23699	7781.19406	1209.59213	0.39085	18318.00000	861.00000	7684.00000
1217.81774	0.39807	0.39988	19014.17361	874.89956	8128.28744	1215.78250	0.39758	18829.00000	873.00000	8012.00000
1224.01210	0.38940	0.40794	19594.72563	876.04482	8512.40726	1221.97287	0.40489	19406.00000	875.00000	8378.00000
1230.20645	0.38048	0.41641	20120.20026	872.48020	8887.37174	1228.16324	0.41415	19956.00000	876.00000	8778.00000
1236.40081	0.37760	0.41918	20649.23727	886.34799	9170.57774	1234.35361	0.41890	20461.00000	874.00000	9079.00000
1242.59516	0.37826	0.41854	21186.14180	892.43754	9386.25978	1240.54398	0.41877	21027.00000	904.00000	9331.00000
1248.78952	0.37756	0.41921	21639.43707	853.74756	9567.36251	1246.73435	0.41869	21481.00000	857.00000	9492.00000
1254.98387	0.37464	0.42205	22186.10389	887.90098	9876.91258	1252.92472	0.42100	21995.00000	874.00000	9766.00000
1261.17823	0.37410	0.42258	22744.98332	890.64324	10125.60459	1259.11509	0.42311	22568.00000	900.00000	10068.00000
1267.37258	0.37742	0.41935	23243.71070	844.15789	10237.38335	1265.30546	0.42032	23078.00000	857.00000	10197.00000
1273.56694	0.37643	0.42031	23813.43146	859.99157	10507.66681	1271.49583	0.41914	23605.00000	844.00000	10384.00000
1279.76129	0.36953	0.42704	24453.54449	898.95555	10957.63726	1277.68620	0.42450	24247.00000	895.00000	10808.00000
1285.95565	0.36133	0.43518	25039.29282	882.87107	11395.34731	1283.87657	0.43239	24843.00000	888.00000	11246.00000
1292.15000	0.35331	0.44329	25633.20976	874.48479	11849.73061	1290.06694	0.44064	25432.00000	877.00000	11697.00000
1298.34435	0.34685	0.44993	26275.57944	875.36170	12303.77939	1296.25731	0.44797	26049.00000	873.00000	12151.00000
1304.53871	0.34380	0.45311	26910.28272	864.72671	12666.03125	1302.44769	0.45255	26712.00000	874.00000	12567.00000
1310.73306	0.34386	0.45304	27539.76334	865.28161	12949.96226	1308.63806	0.45319	27304.00000	854.00000	12841.00000
1316.92742	0.34558	0.45125	28270.79252	884.98210	13242.82528	1314.82843	0.45218	28032.00000	890.00000	13163.00000
1323.12177	0.35003	0.44666	28955.06915	860.68820	13409.29065	1321.01880	0.44850	28719.00000	862.00000	13356.00000
1329.31613	0.35811	0.43842	29633.32179	868.03484	13479.40174	1327.20917	0.44181	29411.00000	869.00000	13479.00000
1335.51048	0.37152	0.42509	30302.79696	861.31771	13376.59593	1333.39954	0.43016	30064.00000	861.00000	13423.00000
1341.70484	0.39029	0.40711	31040.63710	883.35260	13160.66750	1339.58991	0.41377	30788.00000	873.00000	13251.00000
1347.89919	0.41439	0.38514	31710.62252	886.82909	12758.37919	1345.78028	0.39299	31498.00000	894.00000	12921.00000
1354.09355	0.44102	0.36222	32368.46417	858.22619	12271.58773	1351.97065	0.36988	32123.00000	864.00000	12426.00000
1360.28790	0.46548	0.34239	33079.41609	863.88248	11894.60190	1358.16102	0.34871	32852.00000	860.00000	12016.00000
1366.48226	0.48720	0.32569	33719.60962	862.84716	11563.53389	1364.35139	0.33126	33491.00000	867.00000	11674.00000
1372.67661	0.50309	0.31399	34419.13569	848.00380	11389.07686	1370.54176	0.31689	34178.00000	851.00000	11412.00000
1378.87097	0.50576	0.31206	34997.78982	865.89108	11517.17588	1376.73213	0.31180	34829.00000	855.00000	11448.00000
1385.06532	0.50355	0.31366	35282.55609	871.96034	11664.99581	1382.92250	0.31339	35216.00000	879.00000	11640.00000
1391.25968	0.50592	0.31194	35454.56849	868.59113	11657.45954	1389.11287	0.31291	35383.00000	859.00000	11662.00000
1397.45403	0.51412	0.30611	35619.60134	886.37628	11518.57832	1395.30324	0.30875	35583.00000	891.00000	11602.00000
1403.64839	0.53178	0.29391	35834.55471	865.31191	11143.40686	1401.49361	0.29901	35714.00000	866.00000	11286.00000
1409.84274	0.56481	0.27239	36489.35769	873.82043	10574.84355	1407.68398	0.28118	36214.00000	874.00000	10811.00000
1416.03710	0.61691	0.24160	37454.71523	877.22955	9714.07691	1413.87435	0.25302	37098.00000	872.00000	10038.00000
1422.23145	0.68476	0.20665	38501.95566	886.60375	8660.59486	1420.06472	0.21915	38137.00000	888.00000	9051.00000
1428.42581	0.77173	0.16915	39622.23895	874.12429	7426.99469	1426.25509	0.18257	39208.00000	877.00000	7875.00000
1434.62016	0.85863	0.13847	40761.26708	872.53526	6396.72297	1432.44546	0.14701	40388.00000	873.00000	6682.00000
1440.81452	0.88084	0.13157	41685.67119	872.92918	6242.65629	1438.63583	0.13098	41375.00000	872.00000	6177.00000
1447.00887	0.84646	0.14241	42697.97010	892.09592	6846.16433	1444.82620	0.13800	42303.00000	882.00000	6598.00000
1453.20323	0.82070	0.15111	43743.69350	881.19502	7357.79854	1451.01657	0.14914	43420.00000	897.00000	7239.00000
1459.39758	0.81929	0.15161	44616.30730	861.83262	7495.46365	1457.20694	0.15201	44284.00000	854.00000	7456.00000
1465.59194	0.82958	0.14805	45681.51347	893.65188	7524.48993	1463.39731	0.14967	45294.00000	891.00000	7537.00000
1471.78629	0.84522	0.14282	46691.44736	880.41136	7423.13041	1469.58768	0.14465	46358.00000	883.00000	7461.00000
1477.98065	0.85979	0.13811	47539.84378	864.96700	7310.94771	1475.77805	0.13971	47244.00000	875.00000	7353.00000
1484.17500	0.87099	0.13459	48453.02745	858.97393	7264.62487	1481.96842	0.13563	48107.00000	852.00000	7261.00000
1490.36935	0.87819	0.13238	49314.35954	885.82004	7296.57195	1488.15879	0.13312	49049.00000	881.00000	7293.00000
1496.56371	0.88411	0.13058	50001.49019	880.23876	7294.62120	1494.34916	0.13116	49741.00000	883.00000	7291.00000
1502.75806	0.88807	0.12940	50705.77350	864.52184	7313.90309	1500.53953	0.12975	50474.00000	872.00000	7308.00000
1508.95242	0.88886	0.12916	51385.78695	891.73536	7413.78392	1506.72990	0.12910	51118.00000	869.00000	7356.00000
1515.14677	0.88943	0.12899	52107.85403	893.71978	7499.87683	1512.92027	0.12923	51872.00000	917.00000	7502.00000
1521.34113	0.89055	0.12866	52815.89525	851.69957	7537.61446	1519.11064	0.12856	52530.00000	844.00000	7489.00000
1527.53548	0.88833	0.12932	53548.61369	896.26537	7705.17205	1525.30101	0.12914	53323.00000	892.00000	7663.00000
1533.72984	0.88582	0.13007	54149.95370	878.59624	7807.77456	1531.49138	0.12967	53910.00000	882.00000	7758.00000
1539.92419	0.88073	0.13160	54832.12801	868.84378	7970.57964	1537.68175	0.13104	54600.00000	876.00000	7916.00000
1546.11855	0.87573	0.13313	55451.13851	864.00141	8131.05983	1543.87212	0.13258	55220.00000	859.00000	8066.00000
1552.31290	0.87217	0.13422	56042.33834	881.37311	8285.21558	1550.06249	0.13394	55845.00000	879.00000	8241.00000
1558.50726	0.87162	0.13440	56662.34212	881.97129	8378.58059	1556.25286	0.13442	56406.00000	880.00000	8344.00000
1564.70161	0.87453	0.13350	57241.63462	881.81730	8405.72361	1562.44323	0.13399	57084.00000	885.00000	8415.00000
1570.89597	0.87934	0.13202	57652.97230	868.16681	8365.16069	1568.63360	0.13250	57470.00000	872.00000	8371.00000
1577.09032	0.88248	0.13108	58206.47218	874.43948	8389.28538	1574.82397	0.13139	58018.00000	869.00000	8378.00000
1583.28468	0.88470	0.13041	58673.40818	887.42953	8423.11869	1581.01434	0.13060	58502.00000	885.00000	8410.00000
1589.47903	0.88378	0.13068	59041.87130	888.83630	8488.52594	1587.20471	0.13040	58934.00000	888.00000	8457.00000
1595.67339	0.87791	0.13246	59358.10218	876.53006	8623.04368	1593.39508	0.13166	59218.00000	885.00000	8565.00000
1601.86774	0.86685	0.13588	59778.17203	883.72242	8886.17907	1599.58545	0.13437	59632.00000	871.00000	8767.00000
1608.06210	0.85194	0.14062	60103.05486	896.34115	9222.21747	1605.77582	0.13884	59993.00000	904.00000	9108.00000
1614.25645	0.83599	0.14588	60403.71328	879.81794	9563.49108	1611.96619	0.14383	60288.00000	876.00000	9421.00000
1620.45081	0.81963	0.15148	60606.54759	887.56155	9933.99524	1618.15656	0.14947	60563.00000	893.00000	9812.00000
1626.64516	0.80364	0.15717	60733.55595	878.59339	10285.89090	1624.34693	0.15494	60663.00000	874.00000	10138.00000
1632.83952	0.78722	0.16322	60986.21919	889.52033	10698.76089	1630.53730	0.16104	60896.00000	892.00000	10555.00000
1639.03387	0.77286	0.16871	61048.69415	866.62659	11019.79182	1636.72767	0.16671	61067.00000	874.00000	10909.00000
1645.22823	0.76004	0.17377	60863.78586	869.32764	11294.66363	1642.91804	0.17194	60949.00000	864.00000	11195.00000
1651.42258	0.74842	0.17848	59805.79968	899.77194	11412.79155	1649.10841	0.17674	60411.00000	887.00000	11407.00000
1657.61694	0.73875	0.18250	57584.63778	905.33477	11248.81606	1655.29878	0.18115	58428.00000	911.00000	11330.00000
1663.81129	0.72962	0.18637	56481.05190	890.63733	11252.33349	1661.48915	0.18475	56625.00000	891.00000	11188.00000
1670.00565	0.71902	0.19098	55048.67016	902.23167	11241.70362	1667.67952	0.18930	56028.00000	899.00000	11335.00000
1676.20000	0.71021	0.19489	51378.45954	875.98122	10719.54600	1673.86989	0.19351	52735.00000	893.00000	10925.00000
0.00000	0.00000	0.00000	0.00000	0.00000	0.00000	1680.06026	0.19692	48849.00000	859.00000	10309.00000
0.00000	0.00000	0.00000	0.00000	0.00000	0.00000	1686.25063	0.19906	44181.00000	908.00000	9522.00000
0.00000	0.00000	0.00000	0.00000	0.00000	0.00000	1692.44100	0.19906	44181.00000	908.00000	9522.00000
