'File ÌÇ_4_2016Ò»ÔÂ28_1059.xls
'Part ID ÌÇ_4
'Scan Created 2016/1/28 10:59:18
'Instrument S1-00205
'Version 1.5.7
'Integration Time 10100 µs
'Number of Scans 50
'Units Absorbance
'Thermistor 48.07
Wavelength	Absorbance	Normalized	100%	dark	Raw 1	Native Wvl	Native Norm	Native 100%	Native dark	Native 1
908.10000	0.45743	0.34880	3514.15951	877.71219	1796.28437	906.26400	0.33971	3596.00000	879.00000	1802.00000
914.29435	0.42522	0.37565	3281.25113	863.65831	1772.12237	912.45437	0.36857	3339.00000	870.00000	1780.00000
920.48871	0.39316	0.40442	3227.40662	877.32414	1827.82231	918.64474	0.39397	3216.00000	863.00000	1790.00000
926.68306	0.35718	0.43936	3307.28228	905.48228	1960.54149	924.83511	0.43049	3291.00000	910.00000	1935.00000
932.87742	0.32998	0.46775	3382.42130	864.28145	2042.29435	931.02548	0.45815	3345.00000	872.00000	2005.00000
939.07177	0.29869	0.50270	3608.15965	881.02078	2252.00203	937.21585	0.49266	3528.00000	871.00000	2180.00000
945.26613	0.27743	0.52792	3846.64039	885.69520	2448.72937	943.40622	0.52193	3789.00000	894.00000	2405.00000
951.46048	0.26674	0.54108	4004.44998	860.87297	2561.81560	949.59659	0.53782	3954.00000	860.00000	2524.00000
957.65484	0.26129	0.54791	4209.47249	887.01493	2707.42350	955.78696	0.54660	4143.00000	881.00000	2664.00000
963.84919	0.26149	0.54765	4374.85740	871.56767	2790.07449	961.97733	0.54842	4341.00000	882.00000	2779.00000
970.04355	0.26584	0.54220	4520.56130	886.05989	2856.97856	968.16770	0.54429	4456.00000	866.00000	2820.00000
976.23790	0.28568	0.51799	4717.71427	911.39747	2882.52978	974.35807	0.52944	4679.00000	926.00000	2913.00000
982.43226	0.31314	0.48625	4843.76664	857.92770	2796.37494	980.54844	0.49135	4787.00000	857.00000	2788.00000
988.62661	0.30572	0.49463	5076.97721	894.34516	2963.21212	986.73881	0.48956	5011.00000	891.00000	2908.00000
994.82097	0.29223	0.51024	5297.39601	869.00992	3128.43714	992.92918	0.50679	5222.00000	877.00000	3079.00000
1001.01532	0.28898	0.51406	5554.06756	873.41459	3279.66308	999.11955	0.51365	5480.00000	866.00000	3236.00000
1007.20968	0.29042	0.51237	5827.05497	883.56657	3416.26749	1005.30992	0.51332	5731.00000	888.00000	3374.00000
1013.40403	0.28974	0.51317	6120.28754	870.80251	3564.80427	1011.50029	0.51169	6045.00000	868.00000	3517.00000
1019.59839	0.28439	0.51953	6348.68404	901.94795	3731.67808	1017.69066	0.51813	6270.00000	893.00000	3679.00000
1025.79274	0.28361	0.52047	6618.61076	896.05363	3874.37650	1023.88103	0.52050	6540.00000	905.00000	3838.00000
1031.98710	0.28177	0.52268	6878.79036	877.64868	4014.46464	1030.07140	0.52130	6792.00000	876.00000	3960.00000
1038.18145	0.27781	0.52746	7153.19229	875.20158	4186.43800	1036.26177	0.52641	7075.00000	884.00000	4143.00000
1044.37581	0.27462	0.53135	7435.03734	854.54502	4351.30477	1042.45214	0.52962	7334.00000	852.00000	4285.00000
1050.57016	0.27022	0.53676	7778.63216	881.04291	4583.24143	1048.64251	0.53558	7678.00000	876.00000	4519.00000
1056.76452	0.26806	0.53943	8066.37003	871.22278	4752.59999	1054.83288	0.53844	7979.00000	877.00000	4701.00000
1062.95887	0.26504	0.54320	8367.94643	870.25694	4942.95007	1061.02325	0.54208	8268.00000	865.00000	4878.00000
1069.15323	0.26293	0.54585	8674.59951	877.92605	5133.70493	1067.21362	0.54517	8586.00000	882.00000	5082.00000
1075.34758	0.26109	0.54817	8958.19691	861.24829	5299.79424	1073.40399	0.54731	8863.00000	862.00000	5241.00000
1081.54194	0.25851	0.55143	9269.61857	868.88623	5501.21621	1079.59436	0.55038	9175.00000	868.00000	5440.00000
1087.73629	0.25492	0.55601	9599.77547	889.96693	5732.79818	1085.78473	0.55425	9485.00000	877.00000	5648.00000
1093.93065	0.25140	0.56053	9958.85840	903.23915	5979.05258	1091.97510	0.55959	9855.00000	911.00000	5916.00000
1100.12500	0.24996	0.56240	10287.04131	864.70017	6163.87425	1098.16547	0.56169	10175.00000	871.00000	6097.00000
1106.31935	0.24775	0.56527	10673.09117	870.26271	6411.44311	1104.35584	0.56435	10550.00000	868.00000	6332.00000
1112.51371	0.24546	0.56824	11054.17109	867.39097	6656.03189	1110.54621	0.56727	10934.00000	870.00000	6579.00000
1118.70806	0.24415	0.56996	11440.58269	866.80701	6893.42444	1116.73658	0.56980	11315.00000	864.00000	6819.00000
1124.90242	0.24586	0.56773	11853.47185	879.92340	7110.07862	1122.92695	0.56890	11719.00000	877.00000	7045.00000
1131.09677	0.25221	0.55948	12279.20991	877.48685	7256.35783	1129.11732	0.56303	12144.00000	880.00000	7222.00000
1137.29113	0.26201	0.54700	12658.45812	855.49825	7311.89320	1135.30769	0.55076	12547.00000	865.00000	7299.00000
1143.48548	0.27092	0.53590	13049.18681	852.30684	7388.49184	1141.49806	0.53959	12906.00000	845.00000	7353.00000
1149.67984	0.28326	0.52089	13533.98158	886.77209	7474.83282	1147.68843	0.52651	13382.00000	879.00000	7462.00000
1155.87419	0.30426	0.49630	13997.40073	876.37382	7387.74771	1153.87880	0.50548	13845.00000	885.00000	7436.00000
1162.06855	0.32745	0.47049	14503.46887	861.13988	7280.10569	1160.06917	0.47733	14335.00000	860.00000	7292.00000
1168.26290	0.34205	0.45493	15009.58309	885.01032	7310.74235	1166.25954	0.45972	14853.00000	877.00000	7302.00000
1174.45726	0.35814	0.43839	15471.50866	888.01740	7281.05880	1172.44991	0.44414	15322.00000	892.00000	7301.00000
1180.65161	0.37585	0.42087	15938.18293	858.48109	7205.25961	1178.64028	0.42623	15786.00000	869.00000	7227.00000
1186.84597	0.39215	0.40537	16436.20435	853.30650	7169.89662	1184.83065	0.41040	16267.00000	848.00000	7176.00000
1193.04032	0.40335	0.39505	16954.92806	876.34677	7228.33461	1191.02102	0.39701	16791.00000	872.00000	7192.00000
1199.23468	0.40210	0.39619	17462.35109	876.98642	7448.04344	1197.21139	0.39497	17291.00000	877.00000	7360.00000
1205.42903	0.39802	0.39992	17986.83670	869.01927	7714.61291	1203.40176	0.39909	17820.00000	874.00000	7637.00000
1211.62339	0.39411	0.40354	18479.84056	863.23699	7972.42249	1209.59213	0.40173	18318.00000	861.00000	7874.00000
1217.81774	0.38639	0.41078	19014.17361	874.89956	8325.95682	1215.78250	0.40844	18829.00000	873.00000	8207.00000
1224.01210	0.37791	0.41888	19594.72563	876.04482	8717.08323	1221.97287	0.41584	19406.00000	875.00000	8581.00000
1230.20645	0.36921	0.42736	20120.20026	872.48020	9098.08390	1228.16324	0.42505	19956.00000	876.00000	8986.00000
1236.40081	0.36636	0.43017	20649.23727	886.34799	9387.61682	1234.35361	0.42993	20461.00000	874.00000	9295.00000
1242.59516	0.36707	0.42947	21186.14180	892.43754	9608.06259	1240.54398	0.42966	21027.00000	904.00000	9550.00000
1248.78952	0.36629	0.43024	21639.43707	853.74756	9796.58058	1246.73435	0.42974	21481.00000	857.00000	9720.00000
1254.98387	0.36349	0.43302	22186.10389	887.90098	10110.68112	1252.92472	0.43194	21995.00000	874.00000	9997.00000
1261.17823	0.36279	0.43372	22744.98332	890.64324	10369.20678	1259.11509	0.43423	22568.00000	900.00000	10309.00000
1267.37258	0.36608	0.43045	23243.71070	844.15789	10485.97825	1265.30546	0.43144	23078.00000	857.00000	10444.00000
1273.56694	0.36515	0.43137	23813.43146	859.99157	10761.48132	1271.49583	0.43021	23605.00000	844.00000	10636.00000
1279.76129	0.35832	0.43820	24453.54449	898.95555	11220.61783	1277.68620	0.43559	24247.00000	895.00000	11067.00000
1285.95565	0.35017	0.44651	25039.29282	882.87107	11669.02700	1283.87657	0.44371	24843.00000	888.00000	11517.00000
1292.15000	0.34233	0.45464	25633.20976	874.48479	12130.78439	1290.06694	0.45196	25432.00000	877.00000	11975.00000
1298.34435	0.33593	0.46139	26275.57944	875.36170	12594.91413	1296.25731	0.45941	26049.00000	873.00000	12439.00000
1304.53871	0.33288	0.46464	26910.28272	864.72671	12966.39149	1302.44769	0.46405	26712.00000	874.00000	12864.00000
1310.73306	0.33287	0.46466	27539.76334	865.28161	13259.86661	1308.63806	0.46480	27304.00000	854.00000	13148.00000
1316.92742	0.33456	0.46285	28270.79252	884.98210	13560.55076	1314.82843	0.46378	28032.00000	890.00000	13478.00000
1323.12177	0.33882	0.45833	28955.06915	860.68820	13737.16338	1321.01880	0.46014	28719.00000	862.00000	13680.00000
1329.31613	0.34663	0.45016	29633.32179	868.03484	13817.02460	1327.20917	0.45354	29411.00000	869.00000	13814.00000
1335.51048	0.35971	0.43680	30302.79696	861.31771	13721.45601	1333.39954	0.44187	30064.00000	861.00000	13765.00000
1341.70484	0.37795	0.41885	31040.63710	883.35260	13514.51223	1339.58991	0.42551	30788.00000	873.00000	13602.00000
1347.89919	0.40143	0.39679	31710.62252	886.82909	13117.75555	1345.78028	0.40469	31498.00000	894.00000	13279.00000
1354.09355	0.42748	0.37370	32368.46417	858.22619	12633.21690	1351.97065	0.38143	32123.00000	864.00000	12787.00000
1360.28790	0.45138	0.35369	33079.41609	863.88248	12258.62113	1358.16102	0.36006	32852.00000	860.00000	12379.00000
1366.48226	0.47246	0.33693	33719.60962	862.84716	11932.80520	1364.35139	0.34251	33491.00000	867.00000	12041.00000
1372.67661	0.48776	0.32527	34419.13569	848.00380	11767.75047	1370.54176	0.32814	34178.00000	851.00000	11787.00000
1378.87097	0.49016	0.32347	34997.78982	865.89108	11906.73444	1376.73213	0.32316	34829.00000	855.00000	11834.00000
1385.06532	0.48786	0.32520	35282.55609	871.96034	12062.09900	1382.92250	0.32490	35216.00000	879.00000	12035.00000
1391.25968	0.48987	0.32369	35454.56849	868.59113	12063.63561	1389.11287	0.32456	35383.00000	859.00000	12064.00000
1397.45403	0.49755	0.31802	35619.60134	886.37628	11932.26959	1395.30324	0.32065	35583.00000	891.00000	12015.00000
1403.64839	0.51473	0.30568	35834.55471	865.31191	11555.08018	1401.49361	0.31084	35714.00000	866.00000	11698.00000
1409.84274	0.54676	0.28395	36489.35769	873.82043	10986.56659	1407.68398	0.29284	36214.00000	874.00000	11223.00000
1416.03710	0.59753	0.25262	37454.71523	877.22955	10117.43290	1413.87435	0.26429	37098.00000	872.00000	10446.00000
1422.23145	0.66400	0.21677	38501.95566	886.60375	9041.24520	1420.06472	0.22962	38137.00000	888.00000	9441.00000
1428.42581	0.74961	0.17799	39622.23895	874.12429	7769.49881	1426.25509	0.19191	39208.00000	877.00000	8233.00000
1434.62016	0.83529	0.14612	40761.26708	872.53526	6701.78620	1432.44546	0.15498	40388.00000	873.00000	6997.00000
1440.81452	0.85684	0.13904	41685.67119	872.92918	6547.70258	1438.63583	0.13838	41375.00000	872.00000	6477.00000
1447.00887	0.82241	0.15052	42697.97010	892.09592	7185.20142	1444.82620	0.14584	42303.00000	882.00000	6923.00000
1453.20323	0.79645	0.15979	43743.69350	881.19502	7729.68921	1451.01657	0.15768	43420.00000	897.00000	7602.00000
1459.39758	0.79472	0.16043	44616.30730	861.83262	7881.57655	1457.20694	0.16081	44284.00000	854.00000	7838.00000
1465.59194	0.80450	0.15686	45681.51347	893.65188	7918.67677	1463.39731	0.15850	45294.00000	891.00000	7929.00000
1471.78629	0.81971	0.15146	46691.44736	880.41136	7818.93454	1469.58768	0.15336	46358.00000	883.00000	7857.00000
1477.98065	0.83394	0.14657	47539.84378	864.96700	7706.20489	1475.77805	0.14822	47244.00000	875.00000	7748.00000
1484.17500	0.84479	0.14296	48453.02745	858.97393	7662.95718	1481.96842	0.14403	48107.00000	852.00000	7658.00000
1490.36935	0.85175	0.14069	49314.35954	885.82004	7699.07509	1488.15879	0.14144	49049.00000	881.00000	7694.00000
1496.56371	0.85745	0.13885	50001.49019	880.23876	7700.80059	1494.34916	0.13944	49741.00000	883.00000	7696.00000
1502.75806	0.86137	0.13760	50705.77350	864.52184	7722.85587	1500.53953	0.13798	50474.00000	872.00000	7716.00000
1508.95242	0.86222	0.13733	51385.78695	891.73536	7826.33746	1506.72990	0.13728	51118.00000	869.00000	7767.00000
1515.14677	0.86277	0.13716	52107.85403	893.71978	7918.10243	1512.92027	0.13740	51872.00000	917.00000	7918.00000
1521.34113	0.86371	0.13686	52815.89525	851.69957	7963.88588	1519.11064	0.13675	52530.00000	844.00000	7912.00000
1527.53548	0.86146	0.13757	53548.61369	896.26537	8139.79488	1525.30101	0.13738	53323.00000	892.00000	8095.00000
1533.72984	0.85882	0.13842	54149.95370	878.59624	8252.26753	1531.49138	0.13796	53910.00000	882.00000	8198.00000
1539.92419	0.85381	0.14002	54832.12801	868.84378	8424.68078	1537.68175	0.13945	54600.00000	876.00000	8368.00000
1546.11855	0.84920	0.14151	55451.13851	864.00141	8588.91925	1543.87212	0.14097	55220.00000	859.00000	8522.00000
1552.31290	0.84563	0.14268	56042.33834	881.37311	8751.79349	1550.06249	0.14236	55845.00000	879.00000	8704.00000
1558.50726	0.84500	0.14289	56662.34212	881.97129	8852.31412	1556.25286	0.14292	56406.00000	880.00000	8816.00000
1564.70161	0.84778	0.14198	57241.63462	881.81730	8883.76095	1562.44323	0.14246	57084.00000	885.00000	8891.00000
1570.89597	0.85219	0.14054	57652.97230	868.16681	8848.77816	1568.63360	0.14101	57470.00000	872.00000	8853.00000
1577.09032	0.85531	0.13954	58206.47218	874.43948	8874.48866	1574.82397	0.13988	58018.00000	869.00000	8863.00000
1583.28468	0.85748	0.13884	58673.40818	887.42953	8910.57250	1581.01434	0.13904	58502.00000	885.00000	8896.00000
1589.47903	0.85647	0.13916	59041.87130	888.83630	8981.62801	1587.20471	0.13886	58934.00000	888.00000	8948.00000
1595.67339	0.85062	0.14105	59358.10218	876.53006	9125.47131	1593.39508	0.14020	59218.00000	885.00000	9063.00000
1601.86774	0.83961	0.14467	59778.17203	883.72242	9404.10481	1599.58545	0.14309	59632.00000	871.00000	9279.00000
1608.06210	0.82508	0.14960	60103.05486	896.34115	9753.36795	1605.77582	0.14776	59993.00000	904.00000	9635.00000
1614.25645	0.80952	0.15505	60403.71328	879.81794	10109.15765	1611.96619	0.15290	60288.00000	876.00000	9960.00000
1620.45081	0.79337	0.16093	60606.54759	887.56155	10497.85489	1618.15656	0.15882	60563.00000	893.00000	10370.00000
1626.64516	0.77780	0.16680	60733.55595	878.59339	10862.61564	1624.34693	0.16451	60663.00000	874.00000	10710.00000
1632.83952	0.76185	0.17304	60986.21919	889.52033	11288.71134	1630.53730	0.17079	60896.00000	892.00000	11140.00000
1639.03387	0.74783	0.17872	61048.69415	866.62659	11622.16982	1636.72767	0.17665	61067.00000	874.00000	11507.00000
1645.22823	0.73525	0.18397	60863.78586	869.32764	11906.92927	1642.91804	0.18208	60949.00000	864.00000	11804.00000
1651.42258	0.72397	0.18881	59805.79968	899.77194	12021.68369	1649.10841	0.18703	60411.00000	887.00000	12020.00000
1657.61694	0.71436	0.19304	57584.63778	905.33477	11846.16458	1655.29878	0.19158	58428.00000	911.00000	11930.00000
1663.81129	0.70527	0.19712	56481.05190	890.63733	11849.76338	1661.48915	0.19546	56625.00000	891.00000	11785.00000
1670.00565	0.69503	0.20182	55048.67016	902.23167	11828.81561	1667.67952	0.20008	56028.00000	899.00000	11929.00000
1676.20000	0.68614	0.20600	51378.45954	875.98122	11280.45205	1673.86989	0.20453	52735.00000	893.00000	11496.00000
0.00000	0.00000	0.00000	0.00000	0.00000	0.00000	1680.06026	0.20815	48849.00000	859.00000	10848.00000
0.00000	0.00000	0.00000	0.00000	0.00000	0.00000	1686.25063	0.21045	44181.00000	908.00000	10015.00000
0.00000	0.00000	0.00000	0.00000	0.00000	0.00000	1692.44100	0.21045	44181.00000	908.00000	10015.00000
