'File ºì²è_5_2016Ò»ÔÂ28_1122.xls
'Part ID ºì²è_5
'Scan Created 2016/1/28 11:22:06
'Instrument S1-00205
'Version 1.5.7
'Integration Time 10100 µs
'Number of Scans 50
'Units Absorbance
'Thermistor 48.39
Wavelength	Absorbance	Normalized	100%	dark	Raw 1	Native Wvl	Native Norm	Native 100%	Native dark	Native 1
908.10000	0.43218	0.36968	3595.82598	881.87120	1884.93620	906.26400	0.36769	3684.00000	880.00000	1911.00000
914.29435	0.42378	0.37689	3338.07467	866.26472	1797.92799	912.45437	0.37460	3404.00000	876.00000	1823.00000
920.48871	0.41151	0.38770	3265.72768	878.51909	1804.05911	918.64474	0.38381	3257.00000	860.00000	1780.00000
926.68306	0.39871	0.39929	3334.01990	918.74175	1883.08871	924.83511	0.39667	3324.00000	924.00000	1876.00000
932.87742	0.38999	0.40739	3389.36197	864.93184	1893.38996	931.02548	0.40444	3355.00000	875.00000	1878.00000
939.07177	0.37710	0.41966	3619.59224	884.95115	2032.61613	937.21585	0.41592	3537.00000	873.00000	1981.00000
945.26613	0.36673	0.42980	3856.44440	889.93616	2164.87126	943.40622	0.42729	3802.00000	900.00000	2140.00000
951.46048	0.35881	0.43771	4005.12223	859.91735	2236.65785	949.59659	0.43508	3955.00000	859.00000	2206.00000
957.65484	0.35092	0.44574	4215.51392	893.73656	2374.36301	955.78696	0.44376	4148.00000	885.00000	2333.00000
963.84919	0.34497	0.45189	4374.23623	878.43417	2458.11395	961.97733	0.44975	4344.00000	891.00000	2444.00000
970.04355	0.33725	0.45999	4523.41127	896.06510	2564.68083	968.16770	0.45757	4453.00000	871.00000	2510.00000
976.23790	0.33290	0.46462	4726.50938	925.04592	2691.15427	974.35807	0.46398	4693.00000	945.00000	2684.00000
982.43226	0.33029	0.46742	4835.26800	856.06452	2716.13954	980.54844	0.46585	4778.00000	854.00000	2682.00000
988.62661	0.32471	0.47347	5079.18703	905.14928	2881.36267	986.73881	0.47203	5013.00000	901.00000	2842.00000
994.82097	0.32225	0.47616	5288.13901	870.37131	2973.95078	992.92918	0.47543	5216.00000	881.00000	2942.00000
1001.01532	0.31937	0.47932	5547.24444	876.96250	3115.52179	999.11955	0.47817	5470.00000	867.00000	3068.00000
1007.20968	0.31589	0.48318	5821.73207	889.84005	3272.84630	1005.30992	0.48210	5729.00000	896.00000	3226.00000
1013.40403	0.31147	0.48813	6108.36987	875.33513	3429.70824	1011.50029	0.48615	6031.00000	870.00000	3379.00000
1019.59839	0.30564	0.49472	6349.51155	919.49996	3605.81564	1017.69066	0.49301	6269.00000	908.00000	3551.00000
1025.79274	0.30177	0.49915	6610.09178	908.88037	3754.66100	1023.88103	0.49777	6536.00000	921.00000	3716.00000
1031.98710	0.29792	0.50360	6863.27600	885.10537	3895.67227	1030.07140	0.50229	6776.00000	883.00000	3843.00000
1038.18145	0.29453	0.50754	7137.95533	879.30949	4055.80417	1036.26177	0.50632	7062.00000	892.00000	4016.00000
1044.37581	0.29083	0.51188	7415.45215	852.78191	4212.11688	1042.45214	0.51044	7313.00000	848.00000	4148.00000
1050.57016	0.28738	0.51597	7763.75520	889.74850	4436.46841	1048.64251	0.51490	7664.00000	884.00000	4375.00000
1056.76452	0.28480	0.51903	8043.98752	873.54577	4595.27490	1054.83288	0.51802	7958.00000	881.00000	4547.00000
1062.95887	0.28171	0.52275	8346.47029	875.55305	4780.94699	1061.02325	0.52155	8246.00000	868.00000	4716.00000
1069.15323	0.27899	0.52603	8651.05608	883.28349	4969.33427	1067.21362	0.52515	8564.00000	890.00000	4920.00000
1075.34758	0.27694	0.52851	8931.01237	859.29405	5125.32969	1073.40399	0.52771	8836.00000	860.00000	5069.00000
1081.54194	0.27471	0.53123	9243.78719	871.40916	5319.07134	1079.59436	0.53038	9149.00000	870.00000	5261.00000
1087.73629	0.27237	0.53411	9580.78777	901.76500	5537.38811	1085.78473	0.53316	9462.00000	883.00000	5457.00000
1093.93065	0.27048	0.53644	9940.76391	922.65990	5760.34793	1091.97510	0.53592	9841.00000	933.00000	5707.00000
1100.12500	0.26989	0.53717	10254.38783	869.25749	5910.62087	1098.16547	0.53702	10144.00000	878.00000	5854.00000
1106.31935	0.26939	0.53779	10641.04469	875.00467	6127.11485	1104.35584	0.53753	10519.00000	873.00000	6058.00000
1112.51371	0.26881	0.53851	11015.80766	872.41348	6334.67848	1110.54621	0.53836	10897.00000	874.00000	6270.00000
1118.70806	0.26893	0.53836	11401.60672	872.77123	6541.04213	1116.73658	0.53849	11276.00000	871.00000	6474.00000
1124.90242	0.26947	0.53769	11814.30888	885.70510	6761.93718	1122.92695	0.53792	11680.00000	881.00000	6690.00000
1131.09677	0.27016	0.53684	12236.17715	886.26842	6979.28712	1129.11732	0.53714	12103.00000	890.00000	6913.00000
1137.29113	0.27111	0.53566	12606.57558	854.95675	7149.85648	1135.30769	0.53607	12498.00000	867.00000	7102.00000
1143.48548	0.27241	0.53406	12995.31207	851.62722	7337.06995	1141.49806	0.53464	12851.00000	843.00000	7263.00000
1149.67984	0.27417	0.53190	13491.13514	894.93569	7594.94334	1147.68843	0.53265	13335.00000	884.00000	7516.00000
1155.87419	0.27707	0.52836	13953.07917	885.15852	7789.59755	1153.87880	0.52979	13805.00000	896.00000	7735.00000
1162.06855	0.28102	0.52358	14446.12872	862.12568	7974.38488	1160.06917	0.52501	14279.00000	862.00000	7906.00000
1168.26290	0.28379	0.52025	14959.02414	891.75197	8210.24043	1166.25954	0.52116	14800.00000	881.00000	8135.00000
1174.45726	0.28641	0.51712	15420.71473	898.79570	8408.35180	1172.44991	0.51830	15273.00000	903.00000	8351.00000
1180.65161	0.28937	0.51361	15876.41905	861.08105	8573.07452	1178.64028	0.51458	15728.00000	875.00000	8518.00000
1186.84597	0.29067	0.51207	16371.22020	852.06070	8799.03061	1184.83065	0.51234	16201.00000	846.00000	8713.00000
1193.04032	0.29088	0.51183	16894.18264	880.38932	9076.65377	1191.02102	0.51189	16730.00000	875.00000	8991.00000
1199.23468	0.29072	0.51201	17400.55626	883.09277	9340.17063	1197.21139	0.51184	17229.00000	882.00000	9249.00000
1205.42903	0.28966	0.51327	17922.85290	876.52702	9625.87166	1203.40176	0.51274	17758.00000	882.00000	9535.00000
1211.62339	0.28754	0.51577	18412.23826	867.41129	9916.54513	1209.59213	0.51478	18250.00000	866.00000	9815.00000
1217.81774	0.28419	0.51977	18946.64823	877.09601	10269.18979	1215.78250	0.51831	18763.00000	876.00000	10147.00000
1224.01210	0.28028	0.52447	19522.38589	879.59709	10657.12534	1221.97287	0.52295	19334.00000	877.00000	10529.00000
1230.20645	0.27681	0.52868	20046.82356	877.27220	11011.75316	1228.16324	0.52737	19884.00000	882.00000	10903.00000
1236.40081	0.27386	0.53228	20578.92550	894.33634	11372.04546	1234.35361	0.53114	20387.00000	878.00000	11240.00000
1242.59516	0.27137	0.53534	21116.97255	904.50586	11724.95340	1240.54398	0.53440	20962.00000	919.00000	11630.00000
1248.78952	0.26957	0.53756	21555.61107	852.78714	11981.72901	1246.73435	0.53693	21399.00000	858.00000	11887.00000
1254.98387	0.26815	0.53933	22112.97196	897.03001	12339.40774	1252.92472	0.53871	21917.00000	878.00000	12212.00000
1261.17823	0.26699	0.54077	22669.33634	902.45329	12673.36287	1259.11509	0.54043	22498.00000	915.00000	12579.00000
1267.37258	0.26653	0.54133	23144.86310	840.51764	12914.60288	1265.30546	0.54117	22985.00000	857.00000	12832.00000
1273.56694	0.26569	0.54239	23720.39347	860.92978	13259.70032	1271.49583	0.54189	23506.00000	841.00000	13123.00000
1279.76129	0.26419	0.54427	24372.77955	913.59084	13681.65631	1277.68620	0.54364	24166.00000	906.00000	13551.00000
1285.95565	0.26292	0.54586	24945.52650	893.87771	14022.82366	1283.87657	0.54539	24754.00000	903.00000	13911.00000
1292.15000	0.26192	0.54712	25532.41484	877.59600	14366.61736	1290.06694	0.54670	25332.00000	880.00000	14248.00000
1298.34435	0.26092	0.54838	26175.67024	884.75253	14753.83473	1296.25731	0.54795	25949.00000	881.00000	14617.00000
1304.53871	0.26045	0.54897	26805.92834	868.00311	15107.14097	1302.44769	0.54895	26610.00000	881.00000	15005.00000
1310.73306	0.26073	0.54861	27432.03993	867.23944	15441.10713	1308.63806	0.54872	27196.00000	853.00000	15308.00000
1316.92742	0.26128	0.54792	28161.82657	892.73544	15833.97019	1314.82843	0.54829	27925.00000	899.00000	15717.00000
1323.12177	0.26293	0.54585	28842.74169	862.95220	16135.70704	1321.01880	0.54672	28606.00000	864.00000	16031.00000
1329.31613	0.26573	0.54234	29519.54369	871.94640	16408.69145	1327.20917	0.54369	29300.00000	874.00000	16329.00000
1335.51048	0.26973	0.53737	30183.25265	863.66515	16619.15009	1333.39954	0.53923	29944.00000	862.00000	16544.00000
1341.70484	0.27487	0.53104	30926.51890	893.32929	16842.14576	1339.58991	0.53333	30673.00000	881.00000	16770.00000
1347.89919	0.28096	0.52365	31587.63481	894.88004	16967.11492	1345.78028	0.52628	31380.00000	904.00000	16943.00000
1354.09355	0.28752	0.51579	32227.78710	859.30420	17038.81390	1351.97065	0.51846	31988.00000	867.00000	17002.00000
1360.28790	0.29376	0.50844	32929.95072	867.11433	17169.30530	1358.16102	0.51088	32704.00000	861.00000	17129.00000
1366.48226	0.29983	0.50138	33569.06337	866.55753	17262.95796	1364.35139	0.50385	33341.00000	873.00000	17232.00000
1372.67661	0.30628	0.49399	34261.83351	843.87902	17352.16437	1370.54176	0.49656	34024.00000	848.00000	17322.00000
1378.87097	0.31310	0.48630	34838.67465	870.52277	17389.24830	1376.73213	0.48901	34668.00000	855.00000	17390.00000
1385.06532	0.32062	0.47795	35121.03064	877.10458	17244.06269	1382.92250	0.48093	35059.00000	888.00000	17322.00000
1391.25968	0.32923	0.46856	35289.43299	872.38486	16998.84582	1389.11287	0.47197	35214.00000	858.00000	17073.00000
1397.45403	0.34040	0.45667	35460.60298	899.47130	16682.58555	1395.30324	0.46126	35427.00000	906.00000	16829.00000
1403.64839	0.35600	0.44056	35666.10671	869.36576	16199.41103	1401.49361	0.44663	35545.00000	870.00000	16357.00000
1409.84274	0.37601	0.42072	36323.03255	883.09719	15793.25604	1407.68398	0.42799	36050.00000	883.00000	15934.00000
1416.03710	0.39858	0.39941	37284.68636	884.03189	15422.73764	1413.87435	0.40677	36926.00000	879.00000	15542.00000
1422.23145	0.42074	0.37954	38329.42739	892.53935	15101.60064	1420.06472	0.38624	37970.00000	895.00000	15215.00000
1428.42581	0.44071	0.36248	39434.74114	878.71439	14854.41605	1426.25509	0.36806	39022.00000	881.00000	14919.00000
1434.62016	0.45705	0.34910	40575.07439	880.06733	14737.87849	1432.44546	0.35338	40203.00000	880.00000	14776.00000
1440.81452	0.46931	0.33938	41493.68414	879.47622	14663.28300	1438.63583	0.34239	41184.00000	879.00000	14679.00000
1447.00887	0.47747	0.33307	42510.04768	905.41306	14762.42953	1444.82620	0.33494	42113.00000	891.00000	14698.00000
1453.20323	0.48283	0.32898	43543.72896	892.86717	14924.19728	1451.01657	0.33028	43229.00000	914.00000	14890.00000
1459.39758	0.48615	0.32648	44405.02794	864.61268	15079.53683	1457.20694	0.32711	44070.00000	855.00000	14991.00000
1465.59194	0.48729	0.32562	45481.34063	906.97918	15421.06693	1463.39731	0.32584	45094.00000	903.00000	15302.00000
1471.78629	0.48768	0.32533	46480.51435	890.87025	15722.36282	1469.58768	0.32537	46150.00000	894.00000	15619.00000
1477.98065	0.48756	0.32542	47320.91755	868.50781	15984.81129	1475.77805	0.32536	47029.00000	883.00000	15897.00000
1484.17500	0.48715	0.32572	48225.65661	857.63729	16286.53649	1481.96842	0.32559	47881.00000	849.00000	16162.00000
1490.36935	0.48676	0.32602	49092.30051	893.89890	16607.40034	1488.15879	0.32595	48824.00000	887.00000	16512.00000
1496.56371	0.48614	0.32648	49778.04514	887.35808	16849.43232	1494.34916	0.32622	49521.00000	891.00000	16755.00000
1502.75806	0.48445	0.32775	50469.48096	863.36996	17121.95662	1500.53953	0.32723	50241.00000	875.00000	17029.00000
1508.95242	0.48183	0.32974	51158.04064	897.54966	17470.46630	1506.72990	0.32893	50884.00000	867.00000	17319.00000
1515.14677	0.47871	0.33212	51878.91086	902.58342	17832.72177	1512.92027	0.33129	51650.00000	933.00000	17735.00000
1521.34113	0.47539	0.33467	52577.57434	850.45197	18161.94285	1519.11064	0.33366	52288.00000	838.00000	18005.00000
1527.53548	0.47197	0.33731	53324.26188	911.75147	18591.02093	1525.30101	0.33646	53098.00000	907.00000	18467.00000
1533.72984	0.46930	0.33939	53919.19306	885.74627	18884.88655	1531.49138	0.33864	53680.00000	890.00000	18767.00000
1539.92419	0.46708	0.34113	54593.00479	874.24673	19199.07166	1537.68175	0.34059	54367.00000	884.00000	19100.00000
1546.11855	0.46557	0.34232	55208.54831	866.87961	19469.11874	1543.87212	0.34190	54973.00000	860.00000	19361.00000
1552.31290	0.46434	0.34329	55811.51925	888.84465	19743.16227	1550.06249	0.34299	55614.00000	887.00000	19658.00000
1558.50726	0.46356	0.34391	56431.29012	888.46797	19990.10865	1556.25286	0.34370	56172.00000	885.00000	19887.00000
1564.70161	0.46315	0.34423	57011.94896	890.80855	20209.30108	1562.44323	0.34417	56858.00000	895.00000	20156.00000
1570.89597	0.46297	0.34437	57413.89650	869.93991	20342.18378	1568.63360	0.34428	57231.00000	876.00000	20278.00000
1577.09032	0.46241	0.34482	57979.03512	879.44141	20568.44785	1574.82397	0.34464	57786.00000	871.00000	20486.00000
1583.28468	0.46172	0.34537	58450.11400	894.72676	20772.65714	1581.01434	0.34516	58279.00000	894.00000	20701.00000
1589.47903	0.46073	0.34615	58825.25008	895.18773	20947.73438	1587.20471	0.34581	58712.00000	892.00000	20887.00000
1595.67339	0.45937	0.34724	59146.72764	885.70009	21116.13766	1593.39508	0.34682	59009.00000	896.00000	21051.00000
1601.86774	0.45773	0.34855	59574.82387	893.37146	21347.01034	1599.58545	0.34802	59419.00000	877.00000	21251.00000
1608.06210	0.45595	0.34999	59920.72690	909.46488	21562.69078	1605.77582	0.34949	59809.00000	920.00000	21501.00000
1614.25645	0.45430	0.35131	60220.95853	887.30010	21732.11781	1611.96619	0.35081	60102.00000	882.00000	21657.00000
1620.45081	0.45296	0.35240	60438.83040	897.12192	21879.60798	1618.15656	0.35208	60391.00000	905.00000	21849.00000
1626.64516	0.45210	0.35310	60579.30309	884.35356	21962.78247	1624.34693	0.35283	60502.00000	878.00000	21915.00000
1632.83952	0.45150	0.35359	60848.95373	899.57786	22097.24886	1630.53730	0.35349	60754.00000	903.00000	22060.00000
1639.03387	0.45162	0.35349	60928.35809	870.27700	22100.27474	1636.72767	0.35357	60938.00000	879.00000	22114.00000
1645.22823	0.45222	0.35301	60778.06969	873.98452	22020.50453	1642.91804	0.35325	60849.00000	868.00000	22056.00000
1651.42258	0.45366	0.35184	59777.88214	914.49031	21624.65445	1649.10841	0.35238	60357.00000	896.00000	21849.00000
1657.61694	0.45650	0.34954	57642.70006	920.63108	20747.93060	1655.29878	0.35055	58452.00000	931.00000	21095.00000
1663.81129	0.46000	0.34674	56689.89176	898.36344	20242.64478	1661.48915	0.34773	56762.00000	897.00000	20323.00000
1670.00565	0.46259	0.34468	55553.85124	917.06266	19749.42153	1667.67952	0.34534	56404.00000	914.00000	20077.00000
1676.20000	0.46405	0.34352	52318.47966	879.24303	18549.66572	1673.86989	0.34385	53497.00000	901.00000	18986.00000
0.00000	0.00000	0.00000	0.00000	0.00000	0.00000	1680.06026	0.34339	50136.00000	860.00000	17781.00000
0.00000	0.00000	0.00000	0.00000	0.00000	0.00000	1686.25063	0.34411	46019.00000	923.00000	16441.00000
0.00000	0.00000	0.00000	0.00000	0.00000	0.00000	1692.44100	0.34411	46019.00000	923.00000	16441.00000
