'File ºì²è_3_2016Ò»ÔÂ28_1121.xls
'Part ID ºì²è_3
'Scan Created 2016/1/28 11:21:57
'Instrument S1-00205
'Version 1.5.7
'Integration Time 10100 µs
'Number of Scans 50
'Units Absorbance
'Thermistor 48.72
Wavelength	Absorbance	Normalized	100%	dark	Raw 1	Native Wvl	Native Norm	Native 100%	Native dark	Native 1
908.10000	0.44053	0.36263	3595.82598	881.87120	1865.88285	906.26400	0.36091	3684.00000	880.00000	1892.00000
914.29435	0.43161	0.37016	3338.07467	866.26472	1781.24607	912.45437	0.36748	3404.00000	876.00000	1805.00000
920.48871	0.41823	0.38174	3265.72768	878.51909	1789.85614	918.64474	0.37797	3257.00000	860.00000	1766.00000
926.68306	0.40601	0.39264	3334.01990	918.74175	1867.00773	924.83511	0.39000	3324.00000	924.00000	1860.00000
932.87742	0.39624	0.40157	3389.36197	864.93184	1878.71863	931.02548	0.39839	3355.00000	875.00000	1863.00000
939.07177	0.38305	0.41395	3619.59224	884.95115	2016.98270	937.21585	0.41029	3537.00000	873.00000	1966.00000
945.26613	0.37258	0.42405	3856.44440	889.93616	2147.84578	943.40622	0.42143	3802.00000	900.00000	2123.00000
951.46048	0.36441	0.43210	4005.12223	859.91735	2218.99622	949.59659	0.42959	3955.00000	859.00000	2189.00000
957.65484	0.35705	0.43949	4215.51392	893.73656	2353.61686	955.78696	0.43763	4148.00000	885.00000	2313.00000
963.84919	0.35124	0.44542	4374.23623	878.43417	2435.48024	961.97733	0.44338	4344.00000	891.00000	2422.00000
970.04355	0.34362	0.45329	4523.41127	896.06510	2540.38953	968.16770	0.45087	4453.00000	871.00000	2486.00000
976.23790	0.33872	0.45843	4726.50938	925.04592	2667.66071	974.35807	0.45758	4693.00000	945.00000	2660.00000
982.43226	0.33585	0.46147	4835.26800	856.06452	2692.45109	980.54844	0.45999	4778.00000	854.00000	2659.00000
988.62661	0.33058	0.46711	5079.18703	905.14928	2854.84007	986.73881	0.46571	5013.00000	901.00000	2816.00000
994.82097	0.32795	0.46995	5288.13901	870.37131	2946.54394	992.92918	0.46920	5216.00000	881.00000	2915.00000
1001.01532	0.32520	0.47294	5547.24444	876.96250	3085.66865	999.11955	0.47187	5470.00000	867.00000	3039.00000
1007.20968	0.32155	0.47693	5821.73207	889.84005	3242.04992	1005.30992	0.47569	5729.00000	896.00000	3195.00000
1013.40403	0.31700	0.48194	6108.36987	875.33513	3397.29540	1011.50029	0.48014	6031.00000	870.00000	3348.00000
1019.59839	0.31120	0.48843	6349.51155	919.49996	3571.76033	1017.69066	0.48648	6269.00000	908.00000	3516.00000
1025.79274	0.30694	0.49324	6610.09178	908.88037	3720.86565	1023.88103	0.49207	6536.00000	921.00000	3684.00000
1031.98710	0.30356	0.49710	6863.27600	885.10537	3856.93030	1030.07140	0.49567	6776.00000	883.00000	3804.00000
1038.18145	0.29956	0.50170	7137.95533	879.30949	4019.19597	1036.26177	0.50049	7062.00000	892.00000	3980.00000
1044.37581	0.29639	0.50537	7415.45215	852.78191	4169.41609	1042.45214	0.50410	7313.00000	848.00000	4107.00000
1050.57016	0.29272	0.50966	7763.75520	889.74850	4393.09568	1048.64251	0.50841	7664.00000	884.00000	4331.00000
1056.76452	0.28980	0.51309	8043.98752	873.54577	4552.65549	1054.83288	0.51208	7958.00000	881.00000	4505.00000
1062.95887	0.28704	0.51637	8346.47029	875.55305	4733.34998	1061.02325	0.51532	8246.00000	868.00000	4670.00000
1069.15323	0.28438	0.51954	8651.05608	883.28349	4918.96149	1067.21362	0.51863	8564.00000	890.00000	4870.00000
1075.34758	0.28202	0.52237	8931.01237	859.29405	5075.71666	1073.40399	0.52144	8836.00000	860.00000	5019.00000
1081.54194	0.27975	0.52510	9243.78719	871.40916	5267.73845	1079.59436	0.52434	9149.00000	870.00000	5211.00000
1087.73629	0.27765	0.52766	9580.78777	901.76500	5481.37569	1085.78473	0.52675	9462.00000	883.00000	5402.00000
1093.93065	0.27566	0.53008	9940.76391	922.65990	5702.91288	1091.97510	0.52952	9841.00000	933.00000	5650.00000
1100.12500	0.27510	0.53076	10254.38783	869.25749	5850.51870	1098.16547	0.53065	10144.00000	878.00000	5795.00000
1106.31935	0.27474	0.53120	10641.04469	875.00467	6062.75321	1104.35584	0.53100	10519.00000	873.00000	5995.00000
1112.51371	0.27407	0.53202	11015.80766	872.41348	6268.93525	1110.54621	0.53178	10897.00000	874.00000	6204.00000
1118.70806	0.27416	0.53191	11401.60672	872.77123	6473.10196	1116.73658	0.53215	11276.00000	871.00000	6408.00000
1124.90242	0.27496	0.53093	11814.30888	885.70510	6688.04142	1122.92695	0.53116	11680.00000	881.00000	6617.00000
1131.09677	0.27550	0.53027	12236.17715	886.26842	6904.72778	1129.11732	0.53054	12103.00000	890.00000	6839.00000
1137.29113	0.27655	0.52900	12606.57558	854.95675	7071.56982	1135.30769	0.52945	12498.00000	867.00000	7025.00000
1143.48548	0.27795	0.52728	12995.31207	851.62722	7254.77136	1141.49806	0.52790	12851.00000	843.00000	7182.00000
1149.67984	0.27979	0.52506	13491.13514	894.93569	7508.71927	1147.68843	0.52582	13335.00000	884.00000	7431.00000
1155.87419	0.28281	0.52143	13953.07917	885.15852	7699.03781	1153.87880	0.52289	13805.00000	896.00000	7646.00000
1162.06855	0.28689	0.51655	14446.12872	862.12568	7878.89973	1160.06917	0.51800	14279.00000	862.00000	7812.00000
1168.26290	0.28970	0.51321	14959.02414	891.75197	8111.33475	1166.25954	0.51412	14800.00000	881.00000	8037.00000
1174.45726	0.29237	0.51007	15420.71473	898.79570	8305.87562	1172.44991	0.51127	15273.00000	903.00000	8250.00000
1180.65161	0.29547	0.50644	15876.41905	861.08105	8465.53848	1178.64028	0.50744	15728.00000	875.00000	8412.00000
1186.84597	0.29690	0.50478	16371.22020	852.06070	8685.83353	1184.83065	0.50511	16201.00000	846.00000	8602.00000
1193.04032	0.29728	0.50434	16894.18264	880.38932	8956.75978	1191.02102	0.50445	16730.00000	875.00000	8873.00000
1199.23468	0.29716	0.50448	17400.55626	883.09277	9215.80619	1197.21139	0.50431	17229.00000	882.00000	9126.00000
1205.42903	0.29607	0.50575	17922.85290	876.52702	9497.68525	1203.40176	0.50521	17758.00000	882.00000	9408.00000
1211.62339	0.29396	0.50821	18412.23826	867.41129	9783.75944	1209.59213	0.50725	18250.00000	866.00000	9684.00000
1217.81774	0.29055	0.51221	18946.64823	877.09601	10132.55022	1215.78250	0.51071	18763.00000	876.00000	10011.00000
1224.01210	0.28632	0.51722	19522.38589	879.59709	10522.02227	1221.97287	0.51558	19334.00000	877.00000	10393.00000
1230.20645	0.28272	0.52153	20046.82356	877.27220	10874.79281	1228.16324	0.52026	19884.00000	882.00000	10768.00000
1236.40081	0.27984	0.52501	20578.92550	894.33634	11228.89872	1234.35361	0.52386	20387.00000	878.00000	11098.00000
1242.59516	0.27723	0.52816	21116.97255	904.50586	11579.99777	1240.54398	0.52722	20962.00000	919.00000	11486.00000
1248.78952	0.27536	0.53045	21555.61107	852.78714	11834.54560	1246.73435	0.52977	21399.00000	858.00000	11740.00000
1254.98387	0.27378	0.53237	22112.97196	897.03001	12191.84537	1252.92472	0.53173	21917.00000	878.00000	12065.00000
1261.17823	0.27270	0.53370	22669.33634	902.45329	12519.47026	1259.11509	0.53343	22498.00000	915.00000	12428.00000
1267.37258	0.27232	0.53417	23144.86310	840.51764	12754.81312	1265.30546	0.53398	22985.00000	857.00000	12673.00000
1273.56694	0.27136	0.53535	23720.39347	860.92978	13098.70860	1271.49583	0.53483	23506.00000	841.00000	12963.00000
1279.76129	0.26984	0.53723	24372.77955	913.59084	13516.57312	1277.68620	0.53659	24166.00000	906.00000	13387.00000
1285.95565	0.26844	0.53896	24945.52650	893.87771	13856.75330	1283.87657	0.53843	24754.00000	903.00000	13745.00000
1292.15000	0.26738	0.54028	25532.41484	877.59600	14198.06837	1290.06694	0.53987	25332.00000	880.00000	14081.00000
1298.34435	0.26644	0.54145	26175.67024	884.75253	14578.52255	1296.25731	0.54105	25949.00000	881.00000	14444.00000
1304.53871	0.26598	0.54202	26805.92834	868.00311	14926.91819	1302.44769	0.54200	26610.00000	881.00000	14826.00000
1310.73306	0.26622	0.54172	27432.03993	867.23944	15258.06493	1308.63806	0.54181	27196.00000	853.00000	15126.00000
1316.92742	0.26679	0.54102	28161.82657	892.73544	15645.87016	1314.82843	0.54140	27925.00000	899.00000	15531.00000
1323.12177	0.26846	0.53894	28842.74169	862.95220	15942.44341	1321.01880	0.53980	28606.00000	864.00000	15839.00000
1329.31613	0.27132	0.53541	29519.54369	871.94640	16210.11039	1327.20917	0.53680	29300.00000	874.00000	16133.00000
1335.51048	0.27543	0.53035	30183.25265	863.66515	16413.40975	1333.39954	0.53222	29944.00000	862.00000	16340.00000
1341.70484	0.28062	0.52406	30926.51890	893.32929	16632.57154	1339.58991	0.52635	30673.00000	881.00000	16562.00000
1347.89919	0.28686	0.51658	31587.63481	894.88004	16750.15918	1345.78028	0.51926	31380.00000	904.00000	16729.00000
1354.09355	0.29363	0.50859	32227.78710	859.30420	16812.95239	1351.97065	0.51129	31988.00000	867.00000	16779.00000
1360.28790	0.29997	0.50123	32929.95072	867.11433	16937.99579	1358.16102	0.50366	32704.00000	861.00000	16899.00000
1366.48226	0.30614	0.49415	33569.06337	866.55753	17026.49767	1364.35139	0.49664	33341.00000	873.00000	16998.00000
1372.67661	0.31275	0.48668	34261.83351	843.87902	17107.78495	1370.54176	0.48927	34024.00000	848.00000	17080.00000
1378.87097	0.31965	0.47902	34838.67465	870.52277	17141.89280	1376.73213	0.48171	34668.00000	855.00000	17143.00000
1385.06532	0.32728	0.47067	35121.03064	877.10458	16994.74823	1382.92250	0.47368	35059.00000	888.00000	17074.00000
1391.25968	0.33615	0.46116	35289.43299	872.38486	16743.91169	1389.11287	0.46461	35214.00000	858.00000	16820.00000
1397.45403	0.34767	0.44909	35460.60298	899.47130	16420.70347	1395.30324	0.45375	35427.00000	906.00000	16570.00000
1403.64839	0.36382	0.43270	35666.10671	869.36576	15925.78441	1401.49361	0.43888	35545.00000	870.00000	16088.00000
1409.84274	0.38440	0.41266	36323.03255	883.09719	15507.70440	1407.68398	0.41997	36050.00000	883.00000	15652.00000
1416.03710	0.40768	0.39113	37284.68636	884.03189	15121.30815	1413.87435	0.39862	36926.00000	879.00000	15248.00000
1422.23145	0.43067	0.37096	38329.42739	892.53935	14780.38098	1420.06472	0.37772	37970.00000	895.00000	14899.00000
1428.42581	0.45124	0.35380	39434.74114	878.71439	14519.68331	1426.25509	0.35943	39022.00000	881.00000	14590.00000
1434.62016	0.46825	0.34021	40575.07439	880.06733	14384.95930	1432.44546	0.34456	40203.00000	880.00000	14429.00000
1440.81452	0.48092	0.33043	41493.68414	879.47622	14299.58571	1438.63583	0.33343	41184.00000	879.00000	14318.00000
1447.00887	0.48927	0.32414	42510.04768	905.41306	14391.13372	1444.82620	0.32602	42113.00000	891.00000	14330.00000
1453.20323	0.49479	0.32005	43543.72896	892.86717	14543.19505	1451.01657	0.32135	43229.00000	914.00000	14512.00000
1459.39758	0.49821	0.31754	44405.02794	864.61268	14690.33957	1457.20694	0.31818	44070.00000	855.00000	14605.00000
1465.59194	0.49943	0.31664	45481.34063	906.97918	15021.03937	1463.39731	0.31687	45094.00000	903.00000	14906.00000
1471.78629	0.49986	0.31633	46480.51435	890.87025	15312.18214	1469.58768	0.31638	46150.00000	894.00000	15212.00000
1477.98065	0.49965	0.31648	47320.91755	868.50781	15569.90231	1475.77805	0.31639	47029.00000	883.00000	15483.00000
1484.17500	0.49913	0.31686	48225.65661	857.63729	15866.79203	1481.96842	0.31672	47881.00000	849.00000	15745.00000
1490.36935	0.49870	0.31717	49092.30051	893.89890	16181.07096	1488.15879	0.31708	48824.00000	887.00000	16087.00000
1496.56371	0.49800	0.31769	49778.04514	887.35808	16419.30552	1494.34916	0.31742	49521.00000	891.00000	16327.00000
1502.75806	0.49615	0.31904	50469.48096	863.36996	16689.90173	1500.53953	0.31846	50241.00000	875.00000	16596.00000
1508.95242	0.49329	0.32115	51158.04064	897.54966	17038.91609	1506.72990	0.32033	50884.00000	867.00000	16889.00000
1515.14677	0.49013	0.32350	51878.91086	902.58342	17393.35106	1512.92027	0.32267	51650.00000	933.00000	17298.00000
1521.34113	0.48665	0.32610	52577.57434	850.45197	17718.75966	1519.11064	0.32507	52288.00000	838.00000	17563.00000
1527.53548	0.48313	0.32876	53324.26188	911.75147	18142.59701	1525.30101	0.32791	53098.00000	907.00000	18021.00000
1533.72984	0.48042	0.33081	53919.19306	885.74627	18429.96259	1531.49138	0.33006	53680.00000	890.00000	18314.00000
1539.92419	0.47807	0.33261	54593.00479	874.24673	18741.39165	1537.68175	0.33205	54367.00000	884.00000	18643.00000
1546.11855	0.47645	0.33385	55208.54831	866.87961	19008.79201	1543.87212	0.33341	54973.00000	860.00000	18902.00000
1552.31290	0.47523	0.33479	55811.51925	888.84465	19276.38711	1550.06249	0.33451	55614.00000	887.00000	19194.00000
1558.50726	0.47443	0.33541	56431.29012	888.46797	19517.99369	1556.25286	0.33518	56172.00000	885.00000	19416.00000
1564.70161	0.47394	0.33578	57011.94896	890.80855	19735.40593	1562.44323	0.33572	56858.00000	895.00000	19683.00000
1570.89597	0.47374	0.33593	57413.89650	869.93991	19865.05561	1568.63360	0.33584	57231.00000	876.00000	19802.00000
1577.09032	0.47313	0.33641	57979.03512	879.44141	20088.27716	1574.82397	0.33622	57786.00000	871.00000	20007.00000
1583.28468	0.47239	0.33698	58450.11400	894.72676	20289.92795	1581.01434	0.33676	58279.00000	894.00000	20219.00000
1589.47903	0.47137	0.33778	58825.25008	895.18773	20462.67492	1587.20471	0.33744	58712.00000	892.00000	20403.00000
1595.67339	0.46992	0.33891	59146.72764	885.70009	20630.89726	1593.39508	0.33846	59009.00000	896.00000	20565.00000
1601.86774	0.46815	0.34029	59574.82387	893.37146	20862.20778	1599.58545	0.33976	59419.00000	877.00000	20767.00000
1608.06210	0.46632	0.34173	59920.72690	909.46488	21075.44600	1605.77582	0.34122	59809.00000	920.00000	21014.00000
1614.25645	0.46453	0.34314	60220.95853	887.30010	21247.17318	1611.96619	0.34260	60102.00000	882.00000	21171.00000
1620.45081	0.46311	0.34426	60438.83040	897.12192	21395.16758	1618.15656	0.34395	60391.00000	905.00000	21365.00000
1626.64516	0.46219	0.34499	60579.30309	884.35356	21478.77243	1624.34693	0.34469	60502.00000	878.00000	21430.00000
1632.83952	0.46143	0.34560	60848.95373	899.57786	21617.88615	1630.53730	0.34546	60754.00000	903.00000	21579.00000
1639.03387	0.46146	0.34557	60928.35809	870.27700	21624.60951	1636.72767	0.34563	60938.00000	879.00000	21637.00000
1645.22823	0.46205	0.34510	60778.06969	873.98452	21547.03729	1642.91804	0.34534	60849.00000	868.00000	21582.00000
1651.42258	0.46351	0.34394	59777.88214	914.49031	21160.12831	1649.10841	0.34448	60357.00000	896.00000	21379.00000
1657.61694	0.46635	0.34170	57642.70006	920.63108	20303.11444	1655.29878	0.34269	58452.00000	931.00000	20643.00000
1663.81129	0.46996	0.33888	56689.89176	898.36344	19804.21656	1661.48915	0.33989	56762.00000	897.00000	19885.00000
1670.00565	0.47260	0.33682	55553.85124	917.06266	19320.35541	1667.67952	0.33747	56404.00000	914.00000	19640.00000
1676.20000	0.47407	0.33569	52318.47966	879.24303	18146.86126	1673.86989	0.33603	53497.00000	901.00000	18575.00000
0.00000	0.00000	0.00000	0.00000	0.00000	0.00000	1680.06026	0.33550	50136.00000	860.00000	17392.00000
0.00000	0.00000	0.00000	0.00000	0.00000	0.00000	1686.25063	0.33617	46019.00000	923.00000	16083.00000
0.00000	0.00000	0.00000	0.00000	0.00000	0.00000	1692.44100	0.33617	46019.00000	923.00000	16083.00000
