'File ºì²è_1_2016Ò»ÔÂ28_1121.xls
'Part ID ºì²è_1
'Scan Created 2016/1/28 11:21:36
'Instrument S1-00205
'Version 1.5.7
'Integration Time 10100 µs
'Number of Scans 50
'Units Absorbance
'Thermistor 48.39
Wavelength	Absorbance	Normalized	100%	dark	Raw 1	Native Wvl	Native Norm	Native 100%	Native dark	Native 1
908.10000	0.44096	0.36228	3595.82598	881.87120	1864.80505	906.26400	0.35984	3684.00000	880.00000	1889.00000
914.29435	0.43062	0.37101	3338.07467	866.26472	1783.39217	912.45437	0.36828	3404.00000	876.00000	1807.00000
920.48871	0.41791	0.38202	3265.72768	878.51909	1790.50544	918.64474	0.37839	3257.00000	860.00000	1767.00000
926.68306	0.40526	0.39332	3334.01990	918.74175	1868.66537	924.83511	0.39042	3324.00000	924.00000	1861.00000
932.87742	0.39498	0.40273	3389.36197	864.93184	1881.63139	931.02548	0.39960	3355.00000	875.00000	1866.00000
939.07177	0.38232	0.41465	3619.59224	884.95115	2018.89844	937.21585	0.41104	3537.00000	873.00000	1968.00000
945.26613	0.37121	0.42539	3856.44440	889.93616	2151.81218	943.40622	0.42247	3802.00000	900.00000	2126.00000
951.46048	0.36243	0.43408	4005.12223	859.91735	2225.19889	949.59659	0.43152	3955.00000	859.00000	2195.00000
957.65484	0.35585	0.44071	4215.51392	893.73656	2357.63598	955.78696	0.43917	4148.00000	885.00000	2318.00000
963.84919	0.35015	0.44653	4374.23623	878.43417	2439.40739	961.97733	0.44425	4344.00000	891.00000	2425.00000
970.04355	0.34166	0.45534	4523.41127	896.06510	2547.81998	968.16770	0.45282	4453.00000	871.00000	2493.00000
976.23790	0.33753	0.45970	4726.50938	925.04592	2672.43973	974.35807	0.45918	4693.00000	945.00000	2666.00000
982.43226	0.33505	0.46233	4835.26800	856.06452	2695.90477	980.54844	0.46075	4778.00000	854.00000	2662.00000
988.62661	0.32954	0.46823	5079.18703	905.14928	2859.47006	986.73881	0.46693	5013.00000	901.00000	2821.00000
994.82097	0.32731	0.47065	5288.13901	870.37131	2949.65202	992.92918	0.46990	5216.00000	881.00000	2918.00000
1001.01532	0.32446	0.47374	5547.24444	876.96250	3089.38784	999.11955	0.47274	5470.00000	867.00000	3043.00000
1007.20968	0.32089	0.47765	5821.73207	889.84005	3245.64692	1005.30992	0.47631	5729.00000	896.00000	3198.00000
1013.40403	0.31624	0.48280	6108.36987	875.33513	3401.72430	1011.50029	0.48111	6031.00000	870.00000	3353.00000
1019.59839	0.31094	0.48872	6349.51155	919.49996	3573.33713	1017.69066	0.48685	6269.00000	908.00000	3518.00000
1025.79274	0.30659	0.49364	6610.09178	908.88037	3723.15471	1023.88103	0.49243	6536.00000	921.00000	3686.00000
1031.98710	0.30305	0.49768	6863.27600	885.10537	3860.38160	1030.07140	0.49618	6776.00000	883.00000	3807.00000
1038.18145	0.29904	0.50229	7137.95533	879.30949	4022.89778	1036.26177	0.50113	7062.00000	892.00000	3984.00000
1044.37581	0.29596	0.50587	7415.45215	852.78191	4172.69983	1042.45214	0.50456	7313.00000	848.00000	4110.00000
1050.57016	0.29228	0.51018	7763.75520	889.74850	4396.68784	1048.64251	0.50900	7664.00000	884.00000	4335.00000
1056.76452	0.28961	0.51333	8043.98752	873.54577	4554.34603	1054.83288	0.51236	7958.00000	881.00000	4507.00000
1062.95887	0.28677	0.51669	8346.47029	875.55305	4735.67925	1061.02325	0.51559	8246.00000	868.00000	4672.00000
1069.15323	0.28404	0.51995	8651.05608	883.28349	4922.12453	1067.21362	0.51903	8564.00000	890.00000	4873.00000
1075.34758	0.28175	0.52270	8931.01237	859.29405	5078.37922	1073.40399	0.52182	8836.00000	860.00000	5022.00000
1081.54194	0.27956	0.52534	9243.78719	871.40916	5269.74940	1079.59436	0.52458	9149.00000	870.00000	5213.00000
1087.73629	0.27750	0.52784	9580.78777	901.76500	5482.92859	1085.78473	0.52698	9462.00000	883.00000	5404.00000
1093.93065	0.27572	0.53001	9940.76391	922.65990	5702.29523	1091.97510	0.52952	9841.00000	933.00000	5650.00000
1100.12500	0.27515	0.53070	10254.38783	869.25749	5849.95817	1098.16547	0.53054	10144.00000	878.00000	5794.00000
1106.31935	0.27461	0.53137	10641.04469	875.00467	6064.33958	1104.35584	0.53110	10519.00000	873.00000	5996.00000
1112.51371	0.27393	0.53219	11015.80766	872.41348	6270.63718	1110.54621	0.53198	10897.00000	874.00000	6206.00000
1118.70806	0.27426	0.53180	11401.60672	872.77123	6471.90600	1116.73658	0.53215	11276.00000	871.00000	6408.00000
1124.90242	0.27518	0.53067	11814.30888	885.70510	6685.23773	1122.92695	0.53088	11680.00000	881.00000	6614.00000
1131.09677	0.27552	0.53025	12236.17715	886.26842	6904.51747	1129.11732	0.53046	12103.00000	890.00000	6838.00000
1137.29113	0.27661	0.52892	12606.57558	854.95675	7070.68451	1135.30769	0.52945	12498.00000	867.00000	7025.00000
1143.48548	0.27817	0.52703	12995.31207	851.62722	7251.63080	1141.49806	0.52765	12851.00000	843.00000	7179.00000
1149.67984	0.27988	0.52495	13491.13514	894.93569	7507.34836	1147.68843	0.52566	13335.00000	884.00000	7429.00000
1155.87419	0.28290	0.52131	13953.07917	885.15852	7697.49052	1153.87880	0.52281	13805.00000	896.00000	7645.00000
1162.06855	0.28709	0.51631	14446.12872	862.12568	7875.72405	1160.06917	0.51778	14279.00000	862.00000	7809.00000
1168.26290	0.28989	0.51299	14959.02414	891.75197	8108.17258	1166.25954	0.51390	14800.00000	881.00000	8034.00000
1174.45726	0.29263	0.50976	15420.71473	898.79570	8301.44799	1172.44991	0.51100	15273.00000	903.00000	8246.00000
1180.65161	0.29576	0.50611	15876.41905	861.08105	8460.50024	1178.64028	0.50710	15728.00000	875.00000	8407.00000
1186.84597	0.29718	0.50445	16371.22020	852.06070	8680.68781	1184.83065	0.50479	16201.00000	846.00000	8597.00000
1193.04032	0.29764	0.50392	16894.18264	880.38932	8950.08479	1191.02102	0.50407	16730.00000	875.00000	8867.00000
1199.23468	0.29759	0.50397	17400.55626	883.09277	9207.46622	1197.21139	0.50382	17229.00000	882.00000	9118.00000
1205.42903	0.29655	0.50519	17922.85290	876.52702	9488.06428	1203.40176	0.50468	17758.00000	882.00000	9399.00000
1211.62339	0.29440	0.50769	18412.23826	867.41129	9774.76183	1209.59213	0.50667	18250.00000	866.00000	9674.00000
1217.81774	0.29090	0.51180	18946.64823	877.09601	10125.06850	1215.78250	0.51031	18763.00000	876.00000	10004.00000
1224.01210	0.28681	0.51664	19522.38589	879.59709	10511.28196	1221.97287	0.51503	19334.00000	877.00000	10383.00000
1230.20645	0.28319	0.52097	20046.82356	877.27220	10863.93614	1228.16324	0.51968	19884.00000	882.00000	10757.00000
1236.40081	0.28022	0.52454	20578.92550	894.33634	11219.68593	1234.35361	0.52335	20387.00000	878.00000	11088.00000
1242.59516	0.27756	0.52776	21116.97255	904.50586	11571.82792	1240.54398	0.52682	20962.00000	919.00000	11478.00000
1248.78952	0.27581	0.52990	21555.61107	852.78714	11823.18867	1246.73435	0.52928	21399.00000	858.00000	11730.00000
1254.98387	0.27435	0.53167	22112.97196	897.03001	12177.02517	1252.92472	0.53106	21917.00000	878.00000	12051.00000
1261.17823	0.27315	0.53315	22669.33634	902.45329	12507.48805	1259.11509	0.53278	22498.00000	915.00000	12414.00000
1267.37258	0.27269	0.53372	23144.86310	840.51764	12744.66956	1265.30546	0.53358	22985.00000	857.00000	12664.00000
1273.56694	0.27187	0.53473	23720.39347	860.92978	13084.51205	1271.49583	0.53422	23506.00000	841.00000	12949.00000
1279.76129	0.27030	0.53666	24372.77955	913.59084	13503.13033	1277.68620	0.53603	24166.00000	906.00000	13374.00000
1285.95565	0.26902	0.53824	24945.52650	893.87771	13839.54689	1283.87657	0.53776	24754.00000	903.00000	13729.00000
1292.15000	0.26795	0.53958	25532.41484	877.59600	14180.75445	1290.06694	0.53914	25332.00000	880.00000	14063.00000
1298.34435	0.26697	0.54080	26175.67024	884.75253	14562.03893	1296.25731	0.54041	25949.00000	881.00000	14428.00000
1304.53871	0.26653	0.54134	26805.92834	868.00311	14909.06993	1302.44769	0.54130	26610.00000	881.00000	14808.00000
1310.73306	0.26674	0.54107	27432.03993	867.23944	15240.76296	1308.63806	0.54117	27196.00000	853.00000	15109.00000
1316.92742	0.26730	0.54038	28161.82657	892.73544	15628.39460	1314.82843	0.54074	27925.00000	899.00000	15513.00000
1323.12177	0.26899	0.53829	28842.74169	862.95220	15924.06215	1321.01880	0.53918	28606.00000	864.00000	15822.00000
1329.31613	0.27189	0.53470	29519.54369	871.94640	16189.83337	1327.20917	0.53606	29300.00000	874.00000	16112.00000
1335.51048	0.27589	0.52980	30183.25265	863.66515	16397.21022	1333.39954	0.53163	29944.00000	862.00000	16323.00000
1341.70484	0.28112	0.52346	30926.51890	893.32929	16614.41783	1339.58991	0.52578	30673.00000	881.00000	16545.00000
1347.89919	0.28734	0.51601	31587.63481	894.88004	16732.62532	1345.78028	0.51864	31380.00000	904.00000	16710.00000
1354.09355	0.29394	0.50823	32227.78710	859.30420	16801.72461	1351.97065	0.51088	31988.00000	867.00000	16766.00000
1360.28790	0.30025	0.50090	32929.95072	867.11433	16927.59635	1358.16102	0.50334	32704.00000	861.00000	16889.00000
1366.48226	0.30641	0.49384	33569.06337	866.55753	17016.29212	1364.35139	0.49630	33341.00000	873.00000	16987.00000
1372.67661	0.31296	0.48646	34261.83351	843.87902	17100.25061	1370.54176	0.48903	34024.00000	848.00000	17072.00000
1378.87097	0.31981	0.47884	34838.67465	870.52277	17135.86582	1376.73213	0.48150	34668.00000	855.00000	17136.00000
1385.06532	0.32732	0.47063	35121.03064	877.10458	16993.52654	1382.92250	0.47359	35059.00000	888.00000	17071.00000
1391.25968	0.33612	0.46119	35289.43299	872.38486	16745.00621	1389.11287	0.46463	35214.00000	858.00000	16821.00000
1397.45403	0.34754	0.44922	35460.60298	899.47130	16425.12796	1395.30324	0.45381	35427.00000	906.00000	16572.00000
1403.64839	0.36341	0.43310	35666.10671	869.36576	15939.85608	1401.49361	0.43919	35545.00000	870.00000	16099.00000
1409.84274	0.38391	0.41313	36323.03255	883.09719	15524.39092	1407.68398	0.42045	36050.00000	883.00000	15669.00000
1416.03710	0.40715	0.39161	37284.68636	884.03189	15138.67486	1413.87435	0.39906	36926.00000	879.00000	15264.00000
1422.23145	0.43007	0.37148	38329.42739	892.53935	14799.69002	1420.06472	0.37826	37970.00000	895.00000	14919.00000
1428.42581	0.45069	0.35425	39434.74114	878.71439	14537.07064	1426.25509	0.35988	39022.00000	881.00000	14607.00000
1434.62016	0.46766	0.34068	40575.07439	880.06733	14403.41946	1432.44546	0.34504	40203.00000	880.00000	14448.00000
1440.81452	0.48052	0.33074	41493.68414	879.47622	14312.15228	1438.63583	0.33380	41184.00000	879.00000	14333.00000
1447.00887	0.48908	0.32428	42510.04768	905.41306	14396.85068	1444.82620	0.32621	42113.00000	891.00000	14338.00000
1453.20323	0.49478	0.32005	43543.72896	892.86717	14543.42796	1451.01657	0.32140	43229.00000	914.00000	14514.00000
1459.39758	0.49828	0.31748	44405.02794	864.61268	14687.84583	1457.20694	0.31813	44070.00000	855.00000	14603.00000
1465.59194	0.49962	0.31650	45481.34063	906.97918	15014.89557	1463.39731	0.31678	45094.00000	903.00000	14902.00000
1471.78629	0.50018	0.31610	46480.51435	890.87025	15301.63588	1469.58768	0.31616	46150.00000	894.00000	15202.00000
1477.98065	0.50002	0.31621	47320.91755	868.50781	15557.21732	1475.77805	0.31615	47029.00000	883.00000	15472.00000
1484.17500	0.49967	0.31647	48225.65661	857.63729	15848.06533	1481.96842	0.31636	47881.00000	849.00000	15728.00000
1490.36935	0.49927	0.31676	49092.30051	893.89890	16161.18639	1488.15879	0.31667	48824.00000	887.00000	16067.00000
1496.56371	0.49859	0.31725	49778.04514	887.35808	16398.13953	1494.34916	0.31701	49521.00000	891.00000	16307.00000
1502.75806	0.49691	0.31849	50469.48096	863.36996	16662.34268	1500.53953	0.31795	50241.00000	875.00000	16571.00000
1508.95242	0.49414	0.32053	51158.04064	897.54966	17007.38501	1506.72990	0.31971	50884.00000	867.00000	16858.00000
1515.14677	0.49100	0.32285	51878.91086	902.58342	17360.05971	1512.92027	0.32204	51650.00000	933.00000	17266.00000
1521.34113	0.48759	0.32539	52577.57434	850.45197	17682.22254	1519.11064	0.32437	52288.00000	838.00000	17527.00000
1527.53548	0.48402	0.32808	53324.26188	911.75147	18107.08739	1525.30101	0.32722	53098.00000	907.00000	17985.00000
1533.72984	0.48135	0.33010	53919.19306	885.74627	18392.29970	1531.49138	0.32938	53680.00000	890.00000	18278.00000
1539.92419	0.47909	0.33183	54593.00479	874.24673	18699.54408	1537.68175	0.33128	54367.00000	884.00000	18602.00000
1546.11855	0.47752	0.33303	55208.54831	866.87961	18964.18162	1543.87212	0.33262	54973.00000	860.00000	18859.00000
1552.31290	0.47633	0.33394	55811.51925	888.84465	19229.69083	1550.06249	0.33366	55614.00000	887.00000	19147.00000
1558.50726	0.47553	0.33455	56431.29012	888.46797	19470.57098	1556.25286	0.33435	56172.00000	885.00000	19370.00000
1564.70161	0.47514	0.33486	57011.94896	890.80855	19683.51662	1562.44323	0.33481	56858.00000	895.00000	19632.00000
1570.89597	0.47494	0.33501	57413.89650	869.93991	19812.87470	1568.63360	0.33491	57231.00000	876.00000	19750.00000
1577.09032	0.47435	0.33547	57979.03512	879.44141	20034.64803	1574.82397	0.33529	57786.00000	871.00000	19954.00000
1583.28468	0.47365	0.33601	58450.11400	894.72676	20233.97627	1581.01434	0.33580	58279.00000	894.00000	20164.00000
1589.47903	0.47263	0.33680	58825.25008	895.18773	20405.81005	1587.20471	0.33646	58712.00000	892.00000	20346.00000
1595.67339	0.47120	0.33791	59146.72764	885.70009	20572.66499	1593.39508	0.33748	59009.00000	896.00000	20508.00000
1601.86774	0.46944	0.33928	59574.82387	893.37146	20802.92069	1599.58545	0.33873	59419.00000	877.00000	20707.00000
1608.06210	0.46754	0.34077	59920.72690	909.46488	21018.77451	1605.77582	0.34025	59809.00000	920.00000	20957.00000
1614.25645	0.46579	0.34214	60220.95853	887.30010	21187.82152	1611.96619	0.34162	60102.00000	882.00000	21113.00000
1620.45081	0.46440	0.34324	60438.83040	897.12192	21334.34061	1618.15656	0.34292	60391.00000	905.00000	21304.00000
1626.64516	0.46340	0.34403	60579.30309	884.35356	21421.23273	1624.34693	0.34370	60502.00000	878.00000	21371.00000
1632.83952	0.46256	0.34470	60848.95373	899.57786	21564.17771	1630.53730	0.34454	60754.00000	903.00000	21524.00000
1639.03387	0.46259	0.34467	60928.35809	870.27700	21570.73993	1636.72767	0.34474	60938.00000	879.00000	21584.00000
1645.22823	0.46319	0.34420	60778.06969	873.98452	21493.07648	1642.91804	0.34443	60849.00000	868.00000	21527.00000
1651.42258	0.46459	0.34310	59777.88214	914.49031	21110.17453	1649.10841	0.34362	60357.00000	896.00000	21328.00000
1657.61694	0.46743	0.34085	57642.70006	920.63108	20254.88407	1655.29878	0.34184	58452.00000	931.00000	20594.00000
1663.81129	0.47103	0.33804	56689.89176	898.36344	19757.47938	1661.48915	0.33905	56762.00000	897.00000	19838.00000
1670.00565	0.47372	0.33596	55553.85124	917.06266	19272.99158	1667.67952	0.33662	56404.00000	914.00000	19593.00000
1676.20000	0.47528	0.33475	52318.47966	879.24303	18098.60861	1673.86989	0.33512	53497.00000	901.00000	18527.00000
0.00000	0.00000	0.00000	0.00000	0.00000	0.00000	1680.06026	0.33452	50136.00000	860.00000	17344.00000
0.00000	0.00000	0.00000	0.00000	0.00000	0.00000	1686.25063	0.33515	46019.00000	923.00000	16037.00000
0.00000	0.00000	0.00000	0.00000	0.00000	0.00000	1692.44100	0.33515	46019.00000	923.00000	16037.00000
