'File ºì²è_4_2016Ò»ÔÂ28_1122.xls
'Part ID ºì²è_4
'Scan Created 2016/1/28 11:22:01
'Instrument S1-00205
'Version 1.5.7
'Integration Time 10100 µs
'Number of Scans 50
'Units Absorbance
'Thermistor 48.39
Wavelength	Absorbance	Normalized	100%	dark	Raw 1	Native Wvl	Native Norm	Native 100%	Native dark	Native 1
908.10000	0.44194	0.36146	3595.82598	881.87120	1862.61122	906.26400	0.35913	3684.00000	880.00000	1887.00000
914.29435	0.43129	0.37044	3338.07467	866.26472	1781.96651	912.45437	0.36748	3404.00000	876.00000	1805.00000
920.48871	0.41788	0.38205	3265.72768	878.51909	1790.58419	918.64474	0.37839	3257.00000	860.00000	1767.00000
926.68306	0.40605	0.39260	3334.01990	918.74175	1866.92085	924.83511	0.39000	3324.00000	924.00000	1860.00000
932.87742	0.39625	0.40156	3389.36197	864.93184	1878.68386	931.02548	0.39839	3355.00000	875.00000	1863.00000
939.07177	0.38296	0.41404	3619.59224	884.95115	2017.23613	937.21585	0.41029	3537.00000	873.00000	1966.00000
945.26613	0.37217	0.42445	3856.44440	889.93616	2149.00937	943.40622	0.42178	3802.00000	900.00000	2124.00000
951.46048	0.36348	0.43303	4005.12223	859.91735	2221.94699	949.59659	0.43023	3955.00000	859.00000	2191.00000
957.65484	0.35555	0.44101	4215.51392	893.73656	2358.64266	955.78696	0.43917	4148.00000	885.00000	2318.00000
963.84919	0.35018	0.44650	4374.23623	878.43417	2439.27902	961.97733	0.44454	4344.00000	891.00000	2426.00000
970.04355	0.34254	0.45443	4523.41127	896.06510	2544.50882	968.16770	0.45198	4453.00000	871.00000	2490.00000
976.23790	0.33779	0.45942	4726.50938	925.04592	2671.38435	974.35807	0.45864	4693.00000	945.00000	2664.00000
982.43226	0.33467	0.46274	4835.26800	856.06452	2697.52376	980.54844	0.46101	4778.00000	854.00000	2663.00000
988.62661	0.32916	0.46864	5079.18703	905.14928	2861.14266	986.73881	0.46741	5013.00000	901.00000	2823.00000
994.82097	0.32704	0.47093	5288.13901	870.37131	2950.92639	992.92918	0.47013	5216.00000	881.00000	2919.00000
1001.01532	0.32370	0.47457	5547.24444	876.96250	3093.26342	999.11955	0.47339	5470.00000	867.00000	3046.00000
1007.20968	0.32041	0.47818	5821.73207	889.84005	3248.22566	1005.30992	0.47714	5729.00000	896.00000	3202.00000
1013.40403	0.31607	0.48298	6108.36987	875.33513	3402.76558	1011.50029	0.48111	6031.00000	870.00000	3353.00000
1019.59839	0.31007	0.48970	6349.51155	919.49996	3578.63624	1017.69066	0.48778	6269.00000	908.00000	3523.00000
1025.79274	0.30598	0.49433	6610.09178	908.88037	3727.10734	1023.88103	0.49314	6536.00000	921.00000	3690.00000
1031.98710	0.30259	0.49821	6863.27600	885.10537	3863.54164	1030.07140	0.49686	6776.00000	883.00000	3811.00000
1038.18145	0.29860	0.50280	7137.95533	879.30949	4026.14357	1036.26177	0.50146	7062.00000	892.00000	3986.00000
1044.37581	0.29501	0.50698	7415.45215	852.78191	4179.98105	1042.45214	0.50565	7313.00000	848.00000	4117.00000
1050.57016	0.29155	0.51103	7763.75520	889.74850	4402.54469	1048.64251	0.50988	7664.00000	884.00000	4341.00000
1056.76452	0.28868	0.51443	8043.98752	873.54577	4562.22158	1054.83288	0.51335	7958.00000	881.00000	4514.00000
1062.95887	0.28556	0.51814	8346.47029	875.55305	4746.52860	1061.02325	0.51694	8246.00000	868.00000	4682.00000
1069.15323	0.28298	0.52122	8651.05608	883.28349	4931.92049	1067.21362	0.52046	8564.00000	890.00000	4884.00000
1075.34758	0.28103	0.52356	8931.01237	859.29405	5085.39132	1073.40399	0.52269	8836.00000	860.00000	5029.00000
1081.54194	0.27858	0.52652	9243.78719	871.40916	5279.61449	1079.59436	0.52567	9149.00000	870.00000	5222.00000
1087.73629	0.27643	0.52914	9580.78777	901.76500	5494.19987	1085.78473	0.52827	9462.00000	883.00000	5415.00000
1093.93065	0.27457	0.53141	9940.76391	922.65990	5714.94678	1091.97510	0.53087	9841.00000	933.00000	5662.00000
1100.12500	0.27392	0.53221	10254.38783	869.25749	5864.12813	1098.16547	0.53205	10144.00000	878.00000	5808.00000
1106.31935	0.27344	0.53280	10641.04469	875.00467	6078.36834	1104.35584	0.53255	10519.00000	873.00000	6010.00000
1112.51371	0.27283	0.53354	11015.80766	872.41348	6284.35151	1110.54621	0.53337	10897.00000	874.00000	6220.00000
1118.70806	0.27308	0.53324	11401.60672	872.77123	6487.15123	1116.73658	0.53349	11276.00000	871.00000	6422.00000
1124.90242	0.27383	0.53232	11814.30888	885.70510	6703.25800	1122.92695	0.53255	11680.00000	881.00000	6632.00000
1131.09677	0.27444	0.53157	12236.17715	886.26842	6919.49555	1129.11732	0.53188	12103.00000	890.00000	6854.00000
1137.29113	0.27545	0.53034	12606.57558	854.95675	7087.34917	1135.30769	0.53074	12498.00000	867.00000	7040.00000
1143.48548	0.27684	0.52864	12995.31207	851.62722	7271.22596	1141.49806	0.52931	12851.00000	843.00000	7199.00000
1149.67984	0.27878	0.52628	13491.13514	894.93569	7524.14914	1147.68843	0.52703	13335.00000	884.00000	7446.00000
1155.87419	0.28174	0.52271	13953.07917	885.15852	7715.83985	1153.87880	0.52421	13805.00000	896.00000	7663.00000
1162.06855	0.28601	0.51760	14446.12872	862.12568	7893.17969	1160.06917	0.51912	14279.00000	862.00000	7827.00000
1168.26290	0.28883	0.51425	14959.02414	891.75197	8125.88890	1166.25954	0.51512	14800.00000	881.00000	8051.00000
1174.45726	0.29142	0.51118	15420.71473	898.79570	8322.09024	1172.44991	0.51239	15273.00000	903.00000	8266.00000
1180.65161	0.29469	0.50735	15876.41905	861.08105	8479.18218	1178.64028	0.50845	15728.00000	875.00000	8427.00000
1186.84597	0.29618	0.50561	16371.22020	852.06070	8698.82344	1184.83065	0.50589	16201.00000	846.00000	8614.00000
1193.04032	0.29641	0.50535	16894.18264	880.38932	8972.94706	1191.02102	0.50546	16730.00000	875.00000	8889.00000
1199.23468	0.29639	0.50537	17400.55626	883.09277	9230.61220	1197.21139	0.50523	17229.00000	882.00000	9141.00000
1205.42903	0.29531	0.50662	17922.85290	876.52702	9512.57919	1203.40176	0.50610	17758.00000	882.00000	9423.00000
1211.62339	0.29320	0.50910	18412.23826	867.41129	9799.44953	1209.59213	0.50811	18250.00000	866.00000	9699.00000
1217.81774	0.28976	0.51314	18946.64823	877.09601	10149.33349	1215.78250	0.51166	18763.00000	876.00000	10028.00000
1224.01210	0.28559	0.51810	19522.38589	879.59709	10538.42549	1221.97287	0.51644	19334.00000	877.00000	10409.00000
1230.20645	0.28192	0.52250	20046.82356	877.27220	10893.22003	1228.16324	0.52121	19884.00000	882.00000	10786.00000
1236.40081	0.27901	0.52600	20578.92550	894.33634	11248.50233	1234.35361	0.52483	20387.00000	878.00000	11117.00000
1242.59516	0.27636	0.52922	21116.97255	904.50586	11601.35188	1240.54398	0.52826	20962.00000	919.00000	11507.00000
1248.78952	0.27455	0.53143	21555.61107	852.78714	11854.85199	1246.73435	0.53079	21399.00000	858.00000	11761.00000
1254.98387	0.27306	0.53327	22112.97196	897.03001	12210.83218	1252.92472	0.53263	21917.00000	878.00000	12084.00000
1261.17823	0.27184	0.53476	22669.33634	902.45329	12542.51329	1259.11509	0.53440	22498.00000	915.00000	12449.00000
1267.37258	0.27139	0.53531	23144.86310	840.51764	12780.24276	1265.30546	0.53516	22985.00000	857.00000	12699.00000
1273.56694	0.27055	0.53635	23720.39347	860.92978	13121.71792	1271.49583	0.53585	23506.00000	841.00000	12986.00000
1279.76129	0.26903	0.53824	24372.77955	913.59084	13540.18072	1277.68620	0.53762	24166.00000	906.00000	13411.00000
1285.95565	0.26772	0.53986	24945.52650	893.87771	13878.52193	1283.87657	0.53935	24754.00000	903.00000	13767.00000
1292.15000	0.26659	0.54126	25532.41484	877.59600	14222.35992	1290.06694	0.54081	25332.00000	880.00000	14104.00000
1298.34435	0.26563	0.54246	26175.67024	884.75253	14604.03662	1296.25731	0.54209	25949.00000	881.00000	14470.00000
1304.53871	0.26523	0.54296	26805.92834	868.00311	14951.22042	1302.44769	0.54293	26610.00000	881.00000	14850.00000
1310.73306	0.26543	0.54272	27432.03993	867.23944	15284.48181	1308.63806	0.54280	27196.00000	853.00000	15152.00000
1316.92742	0.26604	0.54195	28161.82657	892.73544	15671.24113	1314.82843	0.54237	27925.00000	899.00000	15557.00000
1323.12177	0.26778	0.53978	28842.74169	862.95220	15965.93420	1321.01880	0.54066	28606.00000	864.00000	15863.00000
1329.31613	0.27067	0.53621	29519.54369	871.94640	16233.06635	1327.20917	0.53761	29300.00000	874.00000	16156.00000
1335.51048	0.27479	0.53114	30183.25265	863.66515	16436.34321	1333.39954	0.53301	29944.00000	862.00000	16363.00000
1341.70484	0.28004	0.52476	30926.51890	893.32929	16653.42806	1339.58991	0.52709	30673.00000	881.00000	16584.00000
1347.89919	0.28641	0.51712	31587.63481	894.88004	16766.78185	1345.78028	0.51985	31380.00000	904.00000	16747.00000
1354.09355	0.29323	0.50907	32227.78710	859.30420	16827.81105	1351.97065	0.51178	31988.00000	867.00000	16794.00000
1360.28790	0.29963	0.50161	32929.95072	867.11433	16950.28545	1358.16102	0.50410	32704.00000	861.00000	16913.00000
1366.48226	0.30590	0.49442	33569.06337	866.55753	17035.28562	1364.35139	0.49692	33341.00000	873.00000	17007.00000
1372.67661	0.31248	0.48699	34261.83351	843.87902	17118.06401	1370.54176	0.48957	34024.00000	848.00000	17090.00000
1378.87097	0.31939	0.47930	34838.67465	870.52277	17151.62411	1376.73213	0.48200	34668.00000	855.00000	17153.00000
1385.06532	0.32713	0.47084	35121.03064	877.10458	17000.62615	1382.92250	0.47391	35059.00000	888.00000	17082.00000
1391.25968	0.33618	0.46112	35289.43299	872.38486	16742.81273	1389.11287	0.46463	35214.00000	858.00000	16821.00000
1397.45403	0.34782	0.44894	35460.60298	899.47130	16415.37678	1395.30324	0.45364	35427.00000	906.00000	16566.00000
1403.64839	0.36417	0.43234	35666.10671	869.36576	15913.51178	1401.49361	0.43862	35545.00000	870.00000	16079.00000
1409.84274	0.38512	0.41198	36323.03255	883.09719	15483.52305	1407.68398	0.41940	36050.00000	883.00000	15632.00000
1416.03710	0.40864	0.39026	37284.68636	884.03189	15089.87544	1413.87435	0.39779	36926.00000	879.00000	15218.00000
1422.23145	0.43191	0.36991	38329.42739	892.53935	14740.84568	1420.06472	0.37678	37970.00000	895.00000	14864.00000
1428.42581	0.45282	0.35252	39434.74114	878.71439	14470.27510	1426.25509	0.35817	39022.00000	881.00000	14542.00000
1434.62016	0.46985	0.33896	40575.07439	880.06733	14335.18677	1432.44546	0.34331	40203.00000	880.00000	14380.00000
1440.81452	0.48270	0.32908	41493.68414	879.47622	14244.83150	1438.63583	0.33212	41184.00000	879.00000	14265.00000
1447.00887	0.49112	0.32276	42510.04768	905.41306	14333.60890	1444.82620	0.32463	42113.00000	891.00000	14273.00000
1453.20323	0.49665	0.31868	43543.72896	892.86717	14484.74913	1451.01657	0.31998	43229.00000	914.00000	14454.00000
1459.39758	0.50006	0.31619	44405.02794	864.61268	14631.57393	1457.20694	0.31681	44070.00000	855.00000	14546.00000
1465.59194	0.50129	0.31529	45481.34063	906.97918	14960.68265	1463.39731	0.31554	45094.00000	903.00000	14847.00000
1471.78629	0.50169	0.31500	46480.51435	890.87025	15251.50122	1469.58768	0.31501	46150.00000	894.00000	15150.00000
1477.98065	0.50139	0.31522	47320.91755	868.50781	15511.02510	1475.77805	0.31513	47029.00000	883.00000	15425.00000
1484.17500	0.50094	0.31555	48225.65661	857.63729	15804.52614	1481.96842	0.31540	47881.00000	849.00000	15683.00000
1490.36935	0.50043	0.31591	49092.30051	893.89890	16120.44098	1488.15879	0.31581	48824.00000	887.00000	16026.00000
1496.56371	0.49973	0.31643	49778.04514	887.35808	16357.68695	1494.34916	0.31616	49521.00000	891.00000	16266.00000
1502.75806	0.49797	0.31771	50469.48096	863.36996	16623.72197	1500.53953	0.31716	50241.00000	875.00000	16532.00000
1508.95242	0.49507	0.31984	51158.04064	897.54966	16972.85491	1506.72990	0.31897	50884.00000	867.00000	16821.00000
1515.14677	0.49177	0.32228	51878.91086	902.58342	17330.91899	1512.92027	0.32145	51650.00000	933.00000	17236.00000
1521.34113	0.48832	0.32485	52577.57434	850.45197	17653.98813	1519.11064	0.32381	52288.00000	838.00000	17498.00000
1527.53548	0.48465	0.32760	53324.26188	911.75147	18082.17625	1525.30101	0.32672	53098.00000	907.00000	17959.00000
1533.72984	0.48189	0.32970	53919.19306	885.74627	18370.72377	1531.49138	0.32894	53680.00000	890.00000	18255.00000
1539.92419	0.47953	0.33149	54593.00479	874.24673	18681.60280	1537.68175	0.33093	54367.00000	884.00000	18583.00000
1546.11855	0.47793	0.33272	55208.54831	866.87961	18947.30085	1543.87212	0.33230	54973.00000	860.00000	18842.00000
1552.31290	0.47667	0.33368	55811.51925	888.84465	19215.26691	1550.06249	0.33336	55614.00000	887.00000	19131.00000
1558.50726	0.47576	0.33438	56431.29012	888.46797	19460.94227	1556.25286	0.33415	56172.00000	885.00000	19359.00000
1564.70161	0.47536	0.33469	57011.94896	890.80855	19673.85629	1562.44323	0.33465	56858.00000	895.00000	19623.00000
1570.89597	0.47519	0.33482	57413.89650	869.93991	19801.93500	1568.63360	0.33472	57231.00000	876.00000	19739.00000
1577.09032	0.47451	0.33535	57979.03512	879.44141	20027.62632	1574.82397	0.33513	57786.00000	871.00000	19945.00000
1583.28468	0.47372	0.33595	58450.11400	894.72676	20230.50419	1581.01434	0.33573	58279.00000	894.00000	20160.00000
1589.47903	0.47273	0.33672	58825.25008	895.18773	20401.44636	1587.20471	0.33639	58712.00000	892.00000	20342.00000
1595.67339	0.47126	0.33786	59146.72764	885.70009	20569.74270	1593.39508	0.33741	59009.00000	896.00000	20504.00000
1601.86774	0.46945	0.33927	59574.82387	893.37146	20802.20625	1599.58545	0.33871	59419.00000	877.00000	20706.00000
1608.06210	0.46756	0.34076	59920.72690	909.46488	21017.89840	1605.77582	0.34023	59809.00000	920.00000	20956.00000
1614.25645	0.46572	0.34220	60220.95853	887.30010	21191.18007	1611.96619	0.34164	60102.00000	882.00000	21114.00000
1620.45081	0.46424	0.34337	60438.83040	897.12192	21341.74623	1618.15656	0.34304	60391.00000	905.00000	21311.00000
1626.64516	0.46330	0.34411	60579.30309	884.35356	21426.12351	1624.34693	0.34380	60502.00000	878.00000	21377.00000
1632.83952	0.46257	0.34469	60848.95373	899.57786	21563.49778	1630.53730	0.34457	60754.00000	903.00000	21526.00000
1639.03387	0.46261	0.34466	60928.35809	870.27700	21569.73687	1636.72767	0.34469	60938.00000	879.00000	21581.00000
1645.22823	0.46314	0.34424	60778.06969	873.98452	21495.33022	1642.91804	0.34448	60849.00000	868.00000	21530.00000
1651.42258	0.46467	0.34303	59777.88214	914.49031	21106.35471	1649.10841	0.34359	60357.00000	896.00000	21326.00000
1657.61694	0.46755	0.34076	57642.70006	920.63108	20249.83174	1655.29878	0.34175	58452.00000	931.00000	20589.00000
1663.81129	0.47115	0.33794	56689.89176	898.36344	19752.19185	1661.48915	0.33896	56762.00000	897.00000	19833.00000
1670.00565	0.47386	0.33584	55553.85124	917.06266	19266.80484	1667.67952	0.33651	56404.00000	914.00000	19587.00000
1676.20000	0.47536	0.33469	52318.47966	879.24303	18095.60093	1673.86989	0.33503	53497.00000	901.00000	18522.00000
0.00000	0.00000	0.00000	0.00000	0.00000	0.00000	1680.06026	0.33452	50136.00000	860.00000	17344.00000
0.00000	0.00000	0.00000	0.00000	0.00000	0.00000	1686.25063	0.33513	46019.00000	923.00000	16036.00000
0.00000	0.00000	0.00000	0.00000	0.00000	0.00000	1692.44100	0.33513	46019.00000	923.00000	16036.00000
