'File ºì²è_2_2016Ò»ÔÂ28_1121.xls
'Part ID ºì²è_2
'Scan Created 2016/1/28 11:21:53
'Instrument S1-00205
'Version 1.5.7
'Integration Time 10100 µs
'Number of Scans 50
'Units Absorbance
'Thermistor 48.39
Wavelength	Absorbance	Normalized	100%	dark	Raw 1	Native Wvl	Native Norm	Native 100%	Native dark	Native 1
908.10000	0.44064	0.36254	3595.82598	881.87120	1865.53110	906.26400	0.36020	3684.00000	880.00000	1890.00000
914.29435	0.43079	0.37086	3338.07467	866.26472	1783.03400	912.45437	0.36828	3404.00000	876.00000	1807.00000
920.48871	0.41839	0.38160	3265.72768	878.51909	1789.48198	918.64474	0.37797	3257.00000	860.00000	1766.00000
926.68306	0.40481	0.39372	3334.01990	918.74175	1869.65288	924.83511	0.39042	3324.00000	924.00000	1861.00000
932.87742	0.39368	0.40394	3389.36197	864.93184	1884.66150	931.02548	0.40081	3355.00000	875.00000	1869.00000
939.07177	0.38166	0.41528	3619.59224	884.95115	2020.64277	937.21585	0.41179	3537.00000	873.00000	1970.00000
945.26613	0.37040	0.42618	3856.44440	889.93616	2154.17631	943.40622	0.42316	3802.00000	900.00000	2128.00000
951.46048	0.36150	0.43501	4005.12223	859.91735	2228.11593	949.59659	0.43249	3955.00000	859.00000	2198.00000
957.65484	0.35477	0.44181	4215.51392	893.73656	2361.31781	955.78696	0.44009	4148.00000	885.00000	2321.00000
963.84919	0.34889	0.44783	4374.23623	878.43417	2443.92606	961.97733	0.44570	4344.00000	891.00000	2430.00000
970.04355	0.34136	0.45566	4523.41127	896.06510	2548.97522	968.16770	0.45338	4453.00000	871.00000	2495.00000
976.23790	0.33709	0.46016	4726.50938	925.04592	2674.24630	974.35807	0.45945	4693.00000	945.00000	2667.00000
982.43226	0.33453	0.46288	4835.26800	856.06452	2698.03901	980.54844	0.46152	4778.00000	854.00000	2665.00000
988.62661	0.32939	0.46839	5079.18703	905.14928	2860.16319	986.73881	0.46693	5013.00000	901.00000	2821.00000
994.82097	0.32633	0.47171	5288.13901	870.37131	2954.30428	992.92918	0.47082	5216.00000	881.00000	2922.00000
1001.01532	0.32381	0.47445	5547.24444	876.96250	3092.68522	999.11955	0.47360	5470.00000	867.00000	3047.00000
1007.20968	0.32054	0.47803	5821.73207	889.84005	3247.54818	1005.30992	0.47672	5729.00000	896.00000	3200.00000
1013.40403	0.31555	0.48356	6108.36987	875.33513	3405.72371	1011.50029	0.48169	6031.00000	870.00000	3356.00000
1019.59839	0.30993	0.48986	6349.51155	919.49996	3579.52123	1017.69066	0.48797	6269.00000	908.00000	3524.00000
1025.79274	0.30596	0.49435	6610.09178	908.88037	3727.18243	1023.88103	0.49332	6536.00000	921.00000	3691.00000
1031.98710	0.30282	0.49794	6863.27600	885.10537	3861.95550	1030.07140	0.49652	6776.00000	883.00000	3809.00000
1038.18145	0.29867	0.50273	7137.95533	879.30949	4025.62535	1036.26177	0.50146	7062.00000	892.00000	3986.00000
1044.37581	0.29547	0.50644	7415.45215	852.78191	4176.47380	1042.45214	0.50518	7313.00000	848.00000	4114.00000
1050.57016	0.29213	0.51035	7763.75520	889.74850	4397.85250	1048.64251	0.50929	7664.00000	884.00000	4337.00000
1056.76452	0.28935	0.51363	8043.98752	873.54577	4556.52655	1054.83288	0.51251	7958.00000	881.00000	4508.00000
1062.95887	0.28620	0.51736	8346.47029	875.55305	4740.72782	1061.02325	0.51626	8246.00000	868.00000	4677.00000
1069.15323	0.28383	0.52020	8651.05608	883.28349	4924.04441	1067.21362	0.51942	8564.00000	890.00000	4876.00000
1075.34758	0.28158	0.52290	8931.01237	859.29405	5080.04776	1073.40399	0.52194	8836.00000	860.00000	5023.00000
1081.54194	0.27910	0.52589	9243.78719	871.40916	5274.33095	1079.59436	0.52506	9149.00000	870.00000	5217.00000
1087.73629	0.27721	0.52818	9580.78777	901.76500	5485.90150	1085.78473	0.52745	9462.00000	883.00000	5408.00000
1093.93065	0.27542	0.53037	9940.76391	922.65990	5705.61917	1091.97510	0.52975	9841.00000	933.00000	5652.00000
1100.12500	0.27452	0.53147	10254.38783	869.25749	5857.18845	1098.16547	0.53130	10144.00000	878.00000	5801.00000
1106.31935	0.27430	0.53174	10641.04469	875.00467	6068.02337	1104.35584	0.53162	10519.00000	873.00000	6001.00000
1112.51371	0.27376	0.53240	11015.80766	872.41348	6272.80519	1110.54621	0.53218	10897.00000	874.00000	6208.00000
1118.70806	0.27386	0.53227	11401.60672	872.77123	6476.95586	1116.73658	0.53253	11276.00000	871.00000	6412.00000
1124.90242	0.27478	0.53116	11814.30888	885.70510	6690.52750	1122.92695	0.53144	11680.00000	881.00000	6620.00000
1131.09677	0.27533	0.53048	12236.17715	886.26842	6907.11400	1129.11732	0.53072	12103.00000	890.00000	6841.00000
1137.29113	0.27622	0.52940	12606.57558	854.95675	7076.28980	1135.30769	0.52979	12498.00000	867.00000	7029.00000
1143.48548	0.27767	0.52763	12995.31207	851.62722	7258.97902	1141.49806	0.52831	12851.00000	843.00000	7187.00000
1149.67984	0.27970	0.52517	13491.13514	894.93569	7510.20216	1147.68843	0.52598	13335.00000	884.00000	7433.00000
1155.87419	0.28277	0.52147	13953.07917	885.15852	7699.59368	1153.87880	0.52297	13805.00000	896.00000	7647.00000
1162.06855	0.28687	0.51658	14446.12872	862.12568	7879.32811	1160.06917	0.51800	14279.00000	862.00000	7812.00000
1168.26290	0.28969	0.51323	14959.02414	891.75197	8111.48782	1166.25954	0.51419	14800.00000	881.00000	8038.00000
1174.45726	0.29249	0.50993	15420.71473	898.79570	8303.90718	1172.44991	0.51113	15273.00000	903.00000	8248.00000
1180.65161	0.29553	0.50637	15876.41905	861.08105	8464.37231	1178.64028	0.50737	15728.00000	875.00000	8411.00000
1186.84597	0.29700	0.50466	16371.22020	852.06070	8683.93586	1184.83065	0.50498	16201.00000	846.00000	8600.00000
1193.04032	0.29744	0.50415	16894.18264	880.38932	8953.68345	1191.02102	0.50432	16730.00000	875.00000	8871.00000
1199.23468	0.29751	0.50407	17400.55626	883.09277	9209.05950	1197.21139	0.50395	17229.00000	882.00000	9120.00000
1205.42903	0.29642	0.50534	17922.85290	876.52702	9490.74009	1203.40176	0.50480	17758.00000	882.00000	9401.00000
1211.62339	0.29431	0.50780	18412.23826	867.41129	9776.59151	1209.59213	0.50685	18250.00000	866.00000	9677.00000
1217.81774	0.29085	0.51186	18946.64823	877.09601	10126.23925	1215.78250	0.51031	18763.00000	876.00000	10004.00000
1224.01210	0.28656	0.51694	19522.38589	879.59709	10516.87713	1221.97287	0.51531	19334.00000	877.00000	10388.00000
1230.20645	0.28298	0.52122	20046.82356	877.27220	10868.87359	1228.16324	0.51995	19884.00000	882.00000	10762.00000
1236.40081	0.28003	0.52477	20578.92550	894.33634	11224.30388	1234.35361	0.52360	20387.00000	878.00000	11093.00000
1242.59516	0.27738	0.52798	21116.97255	904.50586	11576.24426	1240.54398	0.52702	20962.00000	919.00000	11482.00000
1248.78952	0.27555	0.53022	21555.61107	852.78714	11829.74380	1246.73435	0.52957	21399.00000	858.00000	11736.00000
1254.98387	0.27408	0.53200	22112.97196	897.03001	12184.04431	1252.92472	0.53139	21917.00000	878.00000	12058.00000
1261.17823	0.27288	0.53348	22669.33634	902.45329	12514.55847	1259.11509	0.53310	22498.00000	915.00000	12421.00000
1267.37258	0.27245	0.53401	23144.86310	840.51764	12751.33097	1265.30546	0.53389	22985.00000	857.00000	12671.00000
1273.56694	0.27165	0.53499	23720.39347	860.92978	13090.57168	1271.49583	0.53448	23506.00000	841.00000	12955.00000
1279.76129	0.27004	0.53699	24372.77955	913.59084	13510.86684	1277.68620	0.53633	24166.00000	906.00000	13381.00000
1285.95565	0.26871	0.53863	24945.52650	893.87771	13848.78199	1283.87657	0.53813	24754.00000	903.00000	13738.00000
1292.15000	0.26766	0.53993	25532.41484	877.59600	14189.48978	1290.06694	0.53951	25332.00000	880.00000	14072.00000
1298.34435	0.26665	0.54119	26175.67024	884.75253	14571.97884	1296.25731	0.54077	25949.00000	881.00000	14437.00000
1304.53871	0.26615	0.54181	26805.92834	868.00311	14921.40287	1302.44769	0.54176	26610.00000	881.00000	14820.00000
1310.73306	0.26639	0.54152	27432.03993	867.23944	15252.57906	1308.63806	0.54162	27196.00000	853.00000	15121.00000
1316.92742	0.26700	0.54075	28161.82657	892.73544	15638.47530	1314.82843	0.54115	27925.00000	899.00000	15524.00000
1323.12177	0.26864	0.53872	28842.74169	862.95220	15936.16695	1321.01880	0.53954	28606.00000	864.00000	15832.00000
1329.31613	0.27146	0.53523	29519.54369	871.94640	16205.14577	1327.20917	0.53662	29300.00000	874.00000	16128.00000
1335.51048	0.27562	0.53012	30183.25265	863.66515	16406.59894	1333.39954	0.53201	29944.00000	862.00000	16334.00000
1341.70484	0.28084	0.52379	30926.51890	893.32929	16624.48097	1339.58991	0.52608	30673.00000	881.00000	16554.00000
1347.89919	0.28709	0.51631	31587.63481	894.88004	16741.86387	1345.78028	0.51900	31380.00000	904.00000	16721.00000
1354.09355	0.29388	0.50830	32227.78710	859.30420	16803.92608	1351.97065	0.51101	31988.00000	867.00000	16770.00000
1360.28790	0.30022	0.50093	32929.95072	867.11433	16928.63960	1358.16102	0.50338	32704.00000	861.00000	16890.00000
1366.48226	0.30640	0.49385	33569.06337	866.55753	17016.68607	1364.35139	0.49633	33341.00000	873.00000	16988.00000
1372.67661	0.31299	0.48642	34261.83351	843.87902	17099.01811	1370.54176	0.48900	34024.00000	848.00000	17071.00000
1378.87097	0.31983	0.47881	34838.67465	870.52277	17134.92453	1376.73213	0.48147	34668.00000	855.00000	17135.00000
1385.06532	0.32741	0.47053	35121.03064	877.10458	16990.00254	1382.92250	0.47353	35059.00000	888.00000	17069.00000
1391.25968	0.33635	0.46094	35289.43299	872.38486	16736.57997	1389.11287	0.46443	35214.00000	858.00000	16814.00000
1397.45403	0.34790	0.44884	35460.60298	899.47130	16412.22850	1395.30324	0.45349	35427.00000	906.00000	16561.00000
1403.64839	0.36396	0.43255	35666.10671	869.36576	15920.85736	1401.49361	0.43870	35545.00000	870.00000	16082.00000
1409.84274	0.38460	0.41248	36323.03255	883.09719	15501.16359	1407.68398	0.41983	36050.00000	883.00000	15647.00000
1416.03710	0.40801	0.39083	37284.68636	884.03189	15110.40385	1413.87435	0.39834	36926.00000	879.00000	15238.00000
1422.23145	0.43109	0.37061	38329.42739	892.53935	14767.08820	1420.06472	0.37740	37970.00000	895.00000	14887.00000
1428.42581	0.45177	0.35337	39434.74114	878.71439	14502.89486	1426.25509	0.35901	39022.00000	881.00000	14574.00000
1434.62016	0.46887	0.33973	40575.07439	880.06733	14365.65933	1432.44546	0.34410	40203.00000	880.00000	14411.00000
1440.81452	0.48166	0.32987	41493.68414	879.47622	14276.72688	1438.63583	0.33289	41184.00000	879.00000	14296.00000
1447.00887	0.48999	0.32360	42510.04768	905.41306	14368.66485	1444.82620	0.32546	42113.00000	891.00000	14307.00000
1453.20323	0.49551	0.31951	43543.72896	892.86717	14520.41134	1451.01657	0.32083	43229.00000	914.00000	14490.00000
1459.39758	0.49902	0.31695	44405.02794	864.61268	14664.58902	1457.20694	0.31760	44070.00000	855.00000	14580.00000
1465.59194	0.50022	0.31606	45481.34063	906.97918	14995.33280	1463.39731	0.31629	45094.00000	903.00000	14880.00000
1471.78629	0.50061	0.31578	46480.51435	890.87025	15287.33572	1469.58768	0.31583	46150.00000	894.00000	15187.00000
1477.98065	0.50047	0.31589	47320.91755	868.50781	15542.14381	1475.77805	0.31582	47029.00000	883.00000	15457.00000
1484.17500	0.50005	0.31619	48225.65661	857.63729	15835.15383	1481.96842	0.31606	47881.00000	849.00000	15714.00000
1490.36935	0.49957	0.31654	49092.30051	893.89890	16150.76493	1488.15879	0.31644	48824.00000	887.00000	16056.00000
1496.56371	0.49887	0.31705	49778.04514	887.35808	16388.34639	1494.34916	0.31680	49521.00000	891.00000	16297.00000
1502.75806	0.49713	0.31833	50469.48096	863.36996	16654.22180	1500.53953	0.31777	50241.00000	875.00000	16562.00000
1508.95242	0.49420	0.32048	51158.04064	897.54966	17005.19826	1506.72990	0.31961	50884.00000	867.00000	16853.00000
1515.14677	0.49094	0.32289	51878.91086	902.58342	17362.42405	1512.92027	0.32208	51650.00000	933.00000	17268.00000
1521.34113	0.48758	0.32540	52577.57434	850.45197	17682.73435	1519.11064	0.32439	52288.00000	838.00000	17528.00000
1527.53548	0.48397	0.32812	53324.26188	911.75147	18109.08052	1525.30101	0.32724	53098.00000	907.00000	17986.00000
1533.72984	0.48123	0.33019	53919.19306	885.74627	18397.00277	1531.49138	0.32946	53680.00000	890.00000	18282.00000
1539.92419	0.47897	0.33192	54593.00479	874.24673	18704.33824	1537.68175	0.33138	54367.00000	884.00000	18607.00000
1546.11855	0.47738	0.33314	55208.54831	866.87961	18970.18647	1543.87212	0.33271	54973.00000	860.00000	18864.00000
1552.31290	0.47613	0.33409	55811.51925	888.84465	19238.04221	1550.06249	0.33380	55614.00000	887.00000	19155.00000
1558.50726	0.47535	0.33469	56431.29012	888.46797	19478.38475	1556.25286	0.33449	56172.00000	885.00000	19378.00000
1564.70161	0.47494	0.33501	57011.94896	890.80855	19692.00780	1562.44323	0.33495	56858.00000	895.00000	19640.00000
1570.89597	0.47468	0.33521	57413.89650	869.93991	19824.03744	1568.63360	0.33509	57231.00000	876.00000	19760.00000
1577.09032	0.47404	0.33571	57979.03512	879.44141	20048.24173	1574.82397	0.33552	57786.00000	871.00000	19967.00000
1583.28468	0.47333	0.33626	58450.11400	894.72676	20248.07488	1581.01434	0.33605	58279.00000	894.00000	20178.00000
1589.47903	0.47233	0.33703	58825.25008	895.18773	20419.56689	1587.20471	0.33670	58712.00000	892.00000	20360.00000
1595.67339	0.47087	0.33817	59146.72764	885.70009	20587.68990	1593.39508	0.33772	59009.00000	896.00000	20522.00000
1601.86774	0.46906	0.33958	59574.82387	893.37146	20820.29703	1599.58545	0.33902	59419.00000	877.00000	20724.00000
1608.06210	0.46718	0.34105	59920.72690	909.46488	21035.53725	1605.77582	0.34054	59809.00000	920.00000	20974.00000
1614.25645	0.46536	0.34248	60220.95853	887.30010	21208.11740	1611.96619	0.34193	60102.00000	882.00000	21131.00000
1620.45081	0.46388	0.34365	60438.83040	897.12192	21358.60860	1618.15656	0.34332	60391.00000	905.00000	21328.00000
1626.64516	0.46292	0.34441	60579.30309	884.35356	21443.89109	1624.34693	0.34409	60502.00000	878.00000	21394.00000
1632.83952	0.46212	0.34505	60848.95373	899.57786	21584.99605	1630.53730	0.34491	60754.00000	903.00000	21546.00000
1639.03387	0.46214	0.34504	60928.35809	870.27700	21592.46192	1636.72767	0.34508	60938.00000	879.00000	21604.00000
1645.22823	0.46266	0.34462	60778.06969	873.98452	21517.91448	1642.91804	0.34484	60849.00000	868.00000	21552.00000
1651.42258	0.46409	0.34348	59777.88214	914.49031	21133.05093	1649.10841	0.34401	60357.00000	896.00000	21351.00000
1657.61694	0.46688	0.34129	57642.70006	920.63108	20279.52241	1655.29878	0.34226	58452.00000	931.00000	20618.00000
1663.81129	0.47046	0.33848	56689.89176	898.36344	19782.19018	1661.48915	0.33950	56762.00000	897.00000	19863.00000
1670.00565	0.47315	0.33639	55553.85124	917.06266	19296.87620	1667.67952	0.33705	56404.00000	914.00000	19617.00000
1676.20000	0.47461	0.33527	52318.47966	879.24303	18125.21006	1673.86989	0.33560	53497.00000	901.00000	18552.00000
0.00000	0.00000	0.00000	0.00000	0.00000	0.00000	1680.06026	0.33509	50136.00000	860.00000	17372.00000
0.00000	0.00000	0.00000	0.00000	0.00000	0.00000	1686.25063	0.33566	46019.00000	923.00000	16060.00000
0.00000	0.00000	0.00000	0.00000	0.00000	0.00000	1692.44100	0.33566	46019.00000	923.00000	16060.00000
