'File 苹果_5_2016一月28_1124.xls
'Part ID 苹果_5
'Scan Created 2016/1/28 11:24:34
'Instrument S1-00205
'Version 1.5.7
'Integration Time 10100 s
'Number of Scans 50
'Units Absorbance
'Thermistor 48.72
Wavelength	Absorbance	Normalized	100%	dark	Raw 1	Native Wvl	Native Norm	Native 100%	Native dark	Native 1
908.10000	0.45770	0.34858	3595.82598	881.87120	1826.82047	906.26400	0.33916	3684.00000	880.00000	1831.00000
914.29435	0.41949	0.38064	3338.07467	866.26472	1807.43918	912.45437	0.37104	3404.00000	876.00000	1814.00000
920.48871	0.38308	0.41392	3265.72768	878.51909	1866.64572	918.64474	0.40384	3257.00000	860.00000	1828.00000
926.68306	0.35232	0.44431	3334.01990	918.74175	1991.76233	924.83511	0.43625	3324.00000	924.00000	1971.00000
932.87742	0.32836	0.46950	3389.36197	864.93184	2050.29309	931.02548	0.46169	3355.00000	875.00000	2020.00000
939.07177	0.30747	0.49264	3619.59224	884.95115	2232.12244	937.21585	0.48686	3537.00000	873.00000	2170.00000
945.26613	0.29827	0.50319	3856.44440	889.93616	2382.63945	943.40622	0.50138	3802.00000	900.00000	2355.00000
951.46048	0.30030	0.50085	4005.12223	859.91735	2435.21032	949.59659	0.50291	3955.00000	859.00000	2416.00000
957.65484	0.31048	0.48924	4215.51392	893.73656	2518.77714	955.78696	0.49310	4148.00000	885.00000	2494.00000
963.84919	0.31848	0.48031	4374.23623	878.43417	2557.57127	961.97733	0.48190	4344.00000	891.00000	2555.00000
970.04355	0.31829	0.48051	4523.41127	896.06510	2639.11113	968.16770	0.47990	4453.00000	871.00000	2590.00000
976.23790	0.31813	0.48069	4726.50938	925.04592	2752.24613	974.35807	0.48132	4693.00000	945.00000	2749.00000
982.43226	0.31814	0.48068	4835.26800	856.06452	2768.93922	980.54844	0.47961	4778.00000	854.00000	2736.00000
988.62661	0.31312	0.48627	5079.18703	905.14928	2934.73504	986.73881	0.48492	5013.00000	901.00000	2895.00000
994.82097	0.31031	0.48943	5288.13901	870.37131	3032.67185	992.92918	0.48835	5216.00000	881.00000	2998.00000
1001.01532	0.30668	0.49353	5547.24444	876.96250	3181.74932	999.11955	0.49229	5470.00000	867.00000	3133.00000
1007.20968	0.30131	0.49968	5821.73207	889.84005	3354.42916	1005.30992	0.49721	5729.00000	896.00000	3299.00000
1013.40403	0.29092	0.51177	6108.36987	875.33513	3553.25019	1011.50029	0.50746	6031.00000	870.00000	3489.00000
1019.59839	0.27832	0.52684	6349.51155	919.49996	3780.41672	1017.69066	0.52229	6269.00000	908.00000	3708.00000
1025.79274	0.26821	0.53924	6610.09178	908.88037	3983.10009	1023.88103	0.53589	6536.00000	921.00000	3930.00000
1031.98710	0.25961	0.55003	6863.27600	885.10537	4173.35998	1030.07140	0.54641	6776.00000	883.00000	4103.00000
1038.18145	0.25052	0.56167	7137.95533	879.30949	4394.55711	1036.26177	0.55835	7062.00000	892.00000	4337.00000
1044.37581	0.24350	0.57083	7415.45215	852.78191	4598.96611	1042.45214	0.56814	7313.00000	848.00000	4521.00000
1050.57016	0.23755	0.57870	7763.75520	889.74850	4867.73193	1048.64251	0.57640	7664.00000	884.00000	4792.00000
1056.76452	0.23296	0.58484	8043.98752	873.54577	5067.08879	1054.83288	0.58316	7958.00000	881.00000	5008.00000
1062.95887	0.22997	0.58888	8346.47029	875.55305	5275.07297	1061.02325	0.58783	8246.00000	868.00000	5205.00000
1069.15323	0.22904	0.59015	8651.05608	883.28349	5467.38935	1067.21362	0.59017	8564.00000	890.00000	5419.00000
1075.34758	0.22985	0.58905	8931.01237	859.29405	5614.02629	1073.40399	0.58939	8836.00000	860.00000	5561.00000
1081.54194	0.23150	0.58681	9243.78719	871.40916	5784.35678	1079.59436	0.58787	9149.00000	870.00000	5737.00000
1087.73629	0.23486	0.58229	9580.78777	901.76500	5955.49674	1085.78473	0.58375	9462.00000	883.00000	5891.00000
1093.93065	0.23932	0.57634	9940.76391	922.65990	6120.14415	1091.97510	0.57858	9841.00000	933.00000	6087.00000
1100.12500	0.24586	0.56773	10254.38783	869.25749	6197.44171	1098.16547	0.57058	10144.00000	878.00000	6165.00000
1106.31935	0.25254	0.55907	10641.04469	875.00467	6334.91565	1104.35584	0.56168	10519.00000	873.00000	6291.00000
1112.51371	0.25902	0.55078	11015.80766	872.41348	6459.15563	1110.54621	0.55353	10897.00000	874.00000	6422.00000
1118.70806	0.26710	0.54063	11401.60672	872.77123	6564.96125	1116.73658	0.54416	11276.00000	871.00000	6533.00000
1124.90242	0.27914	0.52585	11814.30888	885.70510	6632.55222	1122.92695	0.53135	11680.00000	881.00000	6619.00000
1131.09677	0.29927	0.50203	12236.17715	886.26842	6584.03996	1129.11732	0.51084	12103.00000	890.00000	6618.00000
1137.29113	0.32837	0.46949	12606.57558	854.95675	6372.50232	1135.30769	0.48044	12498.00000	867.00000	6455.00000
1143.48548	0.36016	0.43635	12995.31207	851.62722	6150.30287	1141.49806	0.44645	12851.00000	843.00000	6204.00000
1149.67984	0.38579	0.41135	13491.13514	894.93569	6076.59608	1147.68843	0.41812	13335.00000	884.00000	6090.00000
1155.87419	0.40231	0.39599	13953.07917	885.15852	6059.83379	1153.87880	0.40026	13805.00000	896.00000	6063.00000
1162.06855	0.41322	0.38617	14446.12872	862.12568	6107.92736	1160.06917	0.38876	14279.00000	862.00000	6078.00000
1168.26290	0.41890	0.38115	14959.02414	891.75197	6253.60332	1166.25954	0.38236	14800.00000	881.00000	6203.00000
1174.45726	0.42302	0.37755	15420.71473	898.79570	6381.49016	1172.44991	0.37891	15273.00000	903.00000	6348.00000
1180.65161	0.42805	0.37321	15876.41905	861.08105	6464.92502	1178.64028	0.37447	15728.00000	875.00000	6437.00000
1186.84597	0.43138	0.37035	16371.22020	852.06070	6599.65652	1184.83065	0.37115	16201.00000	846.00000	6545.00000
1193.04032	0.43404	0.36809	16894.18264	880.38932	6774.93137	1191.02102	0.36884	16730.00000	875.00000	6723.00000
1199.23468	0.43563	0.36675	17400.55626	883.09277	6940.87312	1197.21139	0.36692	17229.00000	882.00000	6880.00000
1205.42903	0.43481	0.36744	17922.85290	876.52702	7140.06132	1203.40176	0.36709	17758.00000	882.00000	7077.00000
1211.62339	0.43273	0.36921	18412.23826	867.41129	7345.10810	1209.59213	0.36850	18250.00000	866.00000	7272.00000
1217.81774	0.42915	0.37226	18946.64823	877.09601	7603.67748	1215.78250	0.37111	18763.00000	876.00000	7514.00000
1224.01210	0.42461	0.37618	19522.38589	879.59709	7892.60314	1221.97287	0.37487	19334.00000	877.00000	7796.00000
1230.20645	0.42042	0.37982	20046.82356	877.27220	8158.18750	1228.16324	0.37870	19884.00000	882.00000	8078.00000
1236.40081	0.41674	0.38306	20578.92550	894.33634	8434.71847	1234.35361	0.38198	20387.00000	878.00000	8330.00000
1242.59516	0.41343	0.38598	21116.97255	904.50586	8706.13102	1240.54398	0.38512	20962.00000	919.00000	8638.00000
1248.78952	0.41112	0.38804	21555.61107	852.78714	8886.37079	1246.73435	0.38742	21399.00000	858.00000	8816.00000
1254.98387	0.40914	0.38981	22112.97196	897.03001	9167.34361	1252.92472	0.38923	21917.00000	878.00000	9067.00000
1261.17823	0.40780	0.39102	22669.33634	902.45329	9413.72055	1259.11509	0.39077	22498.00000	915.00000	9349.00000
1267.37258	0.40822	0.39064	23144.86310	840.51764	9553.50378	1265.30546	0.39095	22985.00000	857.00000	9508.00000
1273.56694	0.40957	0.38943	23720.39347	860.92978	9763.16455	1271.49583	0.38981	23506.00000	841.00000	9676.00000
1279.76129	0.41175	0.38748	24372.77955	913.59084	10003.59587	1277.68620	0.38839	24166.00000	906.00000	9940.00000
1285.95565	0.41639	0.38336	24945.52650	893.87771	10114.39796	1283.87657	0.38493	24754.00000	903.00000	10084.00000
1292.15000	0.42276	0.37778	25532.41484	877.59600	10191.80197	1290.06694	0.37981	25332.00000	880.00000	10167.00000
1298.34435	0.43070	0.37094	26175.67024	884.75253	10266.01614	1296.25731	0.37338	25949.00000	881.00000	10241.00000
1304.53871	0.44089	0.36233	26805.92834	868.00311	10266.16700	1302.44769	0.36550	26610.00000	881.00000	10285.00000
1310.73306	0.45334	0.35210	27432.03993	867.23944	10220.63844	1308.63806	0.35562	27196.00000	853.00000	10221.00000
1316.92742	0.46738	0.34090	28161.82657	892.73544	10188.65364	1314.82843	0.34489	27925.00000	899.00000	10220.00000
1323.12177	0.48344	0.32852	28842.74169	862.95220	10054.91194	1321.01880	0.33274	28606.00000	864.00000	10095.00000
1329.31613	0.50024	0.31605	29519.54369	871.94640	9926.05315	1327.20917	0.32031	29300.00000	874.00000	9979.00000
1335.51048	0.51718	0.30396	30183.25265	863.66515	9775.69432	1333.39954	0.30796	29944.00000	862.00000	9818.00000
1341.70484	0.53279	0.29323	30926.51890	893.32929	9700.08030	1339.58991	0.29672	30673.00000	881.00000	9721.00000
1347.89919	0.54689	0.28386	31587.63481	894.88004	9607.43593	1345.78028	0.28695	31380.00000	904.00000	9649.00000
1354.09355	0.56009	0.27537	32227.78710	859.30420	9496.99788	1351.97065	0.27820	31988.00000	867.00000	9525.00000
1360.28790	0.57333	0.26710	32929.95072	867.11433	9431.17342	1358.16102	0.26998	32704.00000	861.00000	9458.00000
1366.48226	0.58948	0.25735	33569.06337	866.55753	9282.38146	1364.35139	0.26103	33341.00000	873.00000	9348.00000
1372.67661	0.61191	0.24439	34261.83351	843.87902	9010.87300	1370.54176	0.24925	34024.00000	848.00000	9117.00000
1378.87097	0.64301	0.22750	34838.67465	870.52277	8598.46162	1376.73213	0.23384	34668.00000	855.00000	8762.00000
1385.06532	0.68423	0.20691	35121.03064	877.10458	7962.46166	1382.92250	0.21430	35059.00000	888.00000	8211.00000
1391.25968	0.73152	0.18556	35289.43299	872.38486	7258.51733	1389.11287	0.19280	35214.00000	858.00000	7482.00000
1397.45403	0.77903	0.16633	35460.60298	899.47130	6648.25221	1395.30324	0.17268	35427.00000	906.00000	6867.00000
1403.64839	0.82181	0.15073	35666.10671	869.36576	6114.01988	1401.49361	0.15565	35545.00000	870.00000	6267.00000
1409.84274	0.85637	0.13920	36323.03255	883.09719	5816.21522	1407.68398	0.14283	36050.00000	883.00000	5906.00000
1416.03710	0.88333	0.13082	37284.68636	884.03189	5645.96972	1413.87435	0.13341	36926.00000	879.00000	5688.00000
1422.23145	0.90339	0.12491	38329.42739	892.53935	5568.89798	1420.06472	0.12677	37970.00000	895.00000	5595.00000
1428.42581	0.91806	0.12076	39434.74114	878.71439	5534.91225	1426.25509	0.12202	39022.00000	881.00000	5535.00000
1434.62016	0.92841	0.11792	40575.07439	880.06733	5560.91154	1432.44546	0.11884	40203.00000	880.00000	5553.00000
1440.81452	0.93570	0.11596	41493.68414	879.47622	5588.96622	1438.63583	0.11651	41184.00000	879.00000	5575.00000
1447.00887	0.93890	0.11511	42510.04768	905.41306	5694.37887	1444.82620	0.11530	42113.00000	891.00000	5644.00000
1453.20323	0.94090	0.11458	43543.72896	892.86717	5779.68169	1451.01657	0.11481	43229.00000	914.00000	5772.00000
1459.39758	0.94150	0.11442	44405.02794	864.61268	5846.52950	1457.20694	0.11431	44070.00000	855.00000	5795.00000
1465.59194	0.93812	0.11531	45481.34063	906.97918	6046.92591	1463.39731	0.11496	45094.00000	903.00000	5983.00000
1471.78629	0.93332	0.11660	46480.51435	890.87025	6206.42093	1469.58768	0.11607	46150.00000	894.00000	6147.00000
1477.98065	0.92623	0.11851	47320.91755	868.50781	6373.71540	1475.77805	0.11776	47029.00000	883.00000	6317.00000
1484.17500	0.91698	0.12107	48225.65661	857.63729	6592.38050	1481.96842	0.12009	47881.00000	849.00000	6497.00000
1490.36935	0.90666	0.12398	49092.30051	893.89890	6869.25564	1488.15879	0.12293	48824.00000	887.00000	6780.00000
1496.56371	0.89620	0.12700	49778.04514	887.35808	7096.54590	1494.34916	0.12589	49521.00000	891.00000	7013.00000
1502.75806	0.88514	0.13027	50469.48096	863.36996	7325.68311	1500.53953	0.12908	50241.00000	875.00000	7247.00000
1508.95242	0.87360	0.13378	51158.04064	897.54966	7621.60368	1506.72990	0.13249	50884.00000	867.00000	7494.00000
1515.14677	0.86249	0.13725	51878.91086	902.58342	7898.89351	1512.92027	0.13605	51650.00000	933.00000	7833.00000
1521.34113	0.85153	0.14076	52577.57434	850.45197	8131.57788	1519.11064	0.13942	52288.00000	838.00000	8011.00000
1527.53548	0.84026	0.14446	53324.26188	911.75147	8483.07563	1525.30101	0.14319	53098.00000	907.00000	8380.00000
1533.72984	0.82998	0.14792	53919.19306	885.74627	8730.51780	1531.49138	0.14664	53680.00000	890.00000	8631.00000
1539.92419	0.81978	0.15143	54593.00479	874.24673	9008.90852	1537.68175	0.15020	54367.00000	884.00000	8917.00000
1546.11855	0.81018	0.15482	55208.54831	866.87961	9279.95312	1543.87212	0.15357	54973.00000	860.00000	9170.00000
1552.31290	0.80058	0.15828	55811.51925	888.84465	9581.67959	1550.06249	0.15703	55614.00000	887.00000	9481.00000
1558.50726	0.79133	0.16168	56431.29012	888.46797	9868.98006	1556.25286	0.16044	56172.00000	885.00000	9755.00000
1564.70161	0.78279	0.16490	57011.94896	890.80855	10144.77647	1562.44323	0.16379	56858.00000	895.00000	10061.00000
1570.89597	0.77487	0.16793	57413.89650	869.93991	10365.45277	1568.63360	0.16678	57231.00000	876.00000	10275.00000
1577.09032	0.76670	0.17112	57979.03512	879.44141	10650.21404	1574.82397	0.16997	57786.00000	871.00000	10545.00000
1583.28468	0.75923	0.17409	58450.11400	894.72676	10914.42061	1581.01434	0.17302	58279.00000	894.00000	10823.00000
1589.47903	0.75229	0.17689	58825.25008	895.18773	11142.54300	1587.20471	0.17587	58712.00000	892.00000	11061.00000
1595.67339	0.74559	0.17964	59146.72764	885.70009	11352.06110	1593.39508	0.17863	59009.00000	896.00000	11277.00000
1601.86774	0.73904	0.18237	59574.82387	893.37146	11595.34737	1599.58545	0.18137	59419.00000	877.00000	11495.00000
1608.06210	0.73300	0.18493	59920.72690	909.46488	11822.34824	1605.77582	0.18402	59809.00000	920.00000	11757.00000
1614.25645	0.72735	0.18735	60220.95853	887.30010	12003.46738	1611.96619	0.18644	60102.00000	882.00000	11923.00000
1620.45081	0.72215	0.18960	60438.83040	897.12192	12186.45816	1618.15656	0.18883	60391.00000	905.00000	12138.00000
1626.64516	0.71746	0.19167	60579.30309	884.35356	12325.81155	1624.34693	0.19086	60502.00000	878.00000	12258.00000
1632.83952	0.71275	0.19376	60848.95373	899.57786	12515.12440	1630.53730	0.19303	60754.00000	903.00000	12456.00000
1639.03387	0.70881	0.19552	60928.35809	870.27700	12612.83189	1636.72767	0.19488	60938.00000	879.00000	12583.00000
1645.22823	0.70504	0.19722	60778.06969	873.98452	12688.57738	1642.91804	0.19660	60849.00000	868.00000	12660.00000
1651.42258	0.70142	0.19887	59777.88214	914.49031	12620.75833	1649.10841	0.19826	60357.00000	896.00000	12685.00000
1657.61694	0.69879	0.20008	57642.70006	920.63108	12269.73553	1655.29878	0.19974	58452.00000	931.00000	12420.00000
1663.81129	0.69691	0.20095	56689.89176	898.36344	12109.88633	1661.48915	0.20057	56762.00000	897.00000	12102.00000
1670.00565	0.69443	0.20210	55553.85124	917.06266	11958.83027	1667.67952	0.20168	56404.00000	914.00000	12105.00000
1676.20000	0.69269	0.20291	52318.47966	879.24303	11317.45026	1673.86989	0.20268	53497.00000	901.00000	11561.00000
0.00000	0.00000	0.00000	0.00000	0.00000	0.00000	1680.06026	0.20332	50136.00000	860.00000	10879.00000
0.00000	0.00000	0.00000	0.00000	0.00000	0.00000	1686.25063	0.20425	46019.00000	923.00000	10134.00000
0.00000	0.00000	0.00000	0.00000	0.00000	0.00000	1692.44100	0.20425	46019.00000	923.00000	10134.00000
