'File 苹果_1_2016一月28_1123.xls
'Part ID 苹果_1
'Scan Created 2016/1/28 11:23:58
'Instrument S1-00205
'Version 1.5.7
'Integration Time 10100 s
'Number of Scans 50
'Units Absorbance
'Thermistor 49.04
Wavelength	Absorbance	Normalized	100%	dark	Raw 1	Native Wvl	Native Norm	Native 100%	Native dark	Native 1
908.10000	0.40465	0.39387	3595.82598	881.87120	1949.55747	906.26400	0.38338	3684.00000	880.00000	1955.00000
914.29435	0.36864	0.42792	3338.07467	866.26472	1924.38715	912.45437	0.41812	3404.00000	876.00000	1933.00000
920.48871	0.33445	0.46297	3265.72768	878.51909	1983.70694	918.64474	0.45181	3257.00000	860.00000	1943.00000
926.68306	0.30356	0.49710	3334.01990	918.74175	2119.24404	924.83511	0.48833	3324.00000	924.00000	2096.00000
932.87742	0.28091	0.52371	3389.36197	864.93184	2187.15979	931.02548	0.51532	3355.00000	875.00000	2153.00000
939.07177	0.26030	0.54916	3619.59224	884.95115	2386.68145	937.21585	0.54279	3537.00000	873.00000	2319.00000
945.26613	0.25152	0.56038	3856.44440	889.93616	2552.26925	943.40622	0.55858	3802.00000	900.00000	2521.00000
951.46048	0.25369	0.55759	4005.12223	859.91735	2613.70219	949.59659	0.55975	3955.00000	859.00000	2592.00000
957.65484	0.26337	0.54530	4215.51392	893.73656	2704.94734	955.78696	0.54949	4148.00000	885.00000	2678.00000
963.84919	0.27068	0.53619	4374.23623	878.43417	2752.96682	961.97733	0.53750	4344.00000	891.00000	2747.00000
970.04355	0.26997	0.53706	4523.41127	896.06510	2844.19535	968.16770	0.53657	4453.00000	871.00000	2793.00000
976.23790	0.27055	0.53635	4726.50938	925.04592	2963.86767	974.35807	0.53709	4693.00000	945.00000	2958.00000
982.43226	0.27000	0.53704	4835.26800	856.06452	2993.18870	980.54844	0.53568	4778.00000	854.00000	2956.00000
988.62661	0.26498	0.54327	5079.18703	905.14928	3172.66161	986.73881	0.54183	5013.00000	901.00000	3129.00000
994.82097	0.26251	0.54637	5288.13901	870.37131	3284.22450	992.92918	0.54533	5216.00000	881.00000	3245.00000
1001.01532	0.25925	0.55049	5547.24444	876.96250	3447.75753	999.11955	0.54921	5470.00000	867.00000	3395.00000
1007.20968	0.25425	0.55686	5821.73207	889.84005	3636.43910	1005.30992	0.55431	5729.00000	896.00000	3575.00000
1013.40403	0.24439	0.56965	6108.36987	875.33513	3856.11776	1011.50029	0.56501	6031.00000	870.00000	3786.00000
1019.59839	0.23217	0.58591	6349.51155	919.49996	4101.18173	1017.69066	0.58105	6269.00000	908.00000	4023.00000
1025.79274	0.22273	0.59879	6610.09178	908.88037	4322.57660	1023.88103	0.59537	6536.00000	921.00000	4264.00000
1031.98710	0.21495	0.60961	6863.27600	885.10537	4529.55631	1030.07140	0.60597	6776.00000	883.00000	4454.00000
1038.18145	0.20643	0.62168	7137.95533	879.30949	4770.16827	1036.26177	0.61815	7062.00000	892.00000	4706.00000
1044.37581	0.19969	0.63141	7415.45215	852.78191	4996.51529	1042.45214	0.62862	7313.00000	848.00000	4912.00000
1050.57016	0.19428	0.63933	7763.75520	889.74850	5284.49686	1048.64251	0.63702	7664.00000	884.00000	5203.00000
1056.76452	0.19016	0.64541	8043.98752	873.54577	5501.42502	1054.83288	0.64378	7958.00000	881.00000	5437.00000
1062.95887	0.18755	0.64930	8346.47029	875.55305	5726.46482	1061.02325	0.64828	8246.00000	868.00000	5651.00000
1069.15323	0.18682	0.65040	8651.05608	883.28349	5935.34786	1067.21362	0.65051	8564.00000	890.00000	5882.00000
1075.34758	0.18770	0.64909	8931.01237	859.29405	6098.61809	1073.40399	0.64945	8836.00000	860.00000	6040.00000
1081.54194	0.18924	0.64679	9243.78719	871.40916	6286.49269	1079.59436	0.64790	9149.00000	870.00000	6234.00000
1087.73629	0.19263	0.64176	9580.78777	901.76500	6471.67625	1085.78473	0.64343	9462.00000	883.00000	6403.00000
1093.93065	0.19704	0.63527	9940.76391	922.65990	6651.57764	1091.97510	0.63763	9841.00000	933.00000	6613.00000
1100.12500	0.20324	0.62627	10254.38783	869.25749	6746.86520	1098.16547	0.62929	10144.00000	878.00000	6709.00000
1106.31935	0.20980	0.61688	10641.04469	875.00467	6899.50394	1104.35584	0.61974	10519.00000	873.00000	6851.00000
1112.51371	0.21609	0.60801	11015.80766	872.41348	7039.67220	1110.54621	0.61089	10897.00000	874.00000	6997.00000
1118.70806	0.22384	0.59726	11401.60672	872.77123	7161.23077	1116.73658	0.60106	11276.00000	871.00000	7125.00000
1124.90242	0.23533	0.58166	11814.30888	885.70510	7242.59623	1122.92695	0.58737	11680.00000	881.00000	7224.00000
1131.09677	0.25424	0.55688	12236.17715	886.26842	7206.55182	1129.11732	0.56613	12103.00000	890.00000	7238.00000
1137.29113	0.28200	0.52239	12606.57558	854.95675	6994.17974	1135.30769	0.53400	12498.00000	867.00000	7078.00000
1143.48548	0.31200	0.48753	12995.31207	851.62722	6771.79378	1141.49806	0.49808	12851.00000	843.00000	6824.00000
1149.67984	0.33586	0.46147	13491.13514	894.93569	6707.91711	1147.68843	0.46856	13335.00000	884.00000	6718.00000
1155.87419	0.35140	0.44524	13953.07917	885.15852	6703.43204	1153.87880	0.44976	13805.00000	896.00000	6702.00000
1162.06855	0.36151	0.43500	14446.12872	862.12568	6771.16831	1160.06917	0.43765	14279.00000	862.00000	6734.00000
1168.26290	0.36663	0.42990	14959.02414	891.75197	6939.37648	1166.25954	0.43114	14800.00000	881.00000	6882.00000
1174.45726	0.37045	0.42614	15420.71473	898.79570	7087.06150	1172.44991	0.42756	15273.00000	903.00000	7047.00000
1180.65161	0.37523	0.42148	15876.41905	861.08105	7189.70882	1178.64028	0.42288	15728.00000	875.00000	7156.00000
1186.84597	0.37852	0.41829	16371.22020	852.06070	7343.59799	1184.83065	0.41915	16201.00000	846.00000	7282.00000
1193.04032	0.38085	0.41605	16894.18264	880.38932	7542.88137	1191.02102	0.41678	16730.00000	875.00000	7483.00000
1199.23468	0.38230	0.41467	17400.55626	883.09277	7732.37585	1197.21139	0.41488	17229.00000	882.00000	7664.00000
1205.42903	0.38169	0.41525	17922.85290	876.52702	7955.00500	1203.40176	0.41491	17758.00000	882.00000	7884.00000
1211.62339	0.37960	0.41725	18412.23826	867.41129	8188.04743	1209.59213	0.41642	18250.00000	866.00000	8105.00000
1217.81774	0.37597	0.42075	18946.64823	877.09601	8479.90955	1215.78250	0.41947	18763.00000	876.00000	8379.00000
1224.01210	0.37151	0.42510	19522.38589	879.59709	8804.72460	1221.97287	0.42363	19334.00000	877.00000	8696.00000
1230.20645	0.36735	0.42919	20046.82356	877.27220	9104.70855	1228.16324	0.42795	19884.00000	882.00000	9014.00000
1236.40081	0.36391	0.43261	20578.92550	894.33634	9410.07854	1234.35361	0.43149	20387.00000	878.00000	9296.00000
1242.59516	0.36079	0.43572	21116.97255	904.50586	9711.44933	1240.54398	0.43477	20962.00000	919.00000	9633.00000
1248.78952	0.35858	0.43795	21555.61107	852.78714	9919.45763	1246.73435	0.43732	21399.00000	858.00000	9841.00000
1254.98387	0.35684	0.43971	22112.97196	897.03001	10225.87860	1252.92472	0.43909	21917.00000	878.00000	10116.00000
1261.17823	0.35565	0.44091	22669.33634	902.45329	10499.63731	1259.11509	0.44072	22498.00000	915.00000	10427.00000
1267.37258	0.35614	0.44042	23144.86310	840.51764	10663.70076	1265.30546	0.44071	22985.00000	857.00000	10609.00000
1273.56694	0.35738	0.43915	23720.39347	860.92978	10899.77529	1271.49583	0.43962	23506.00000	841.00000	10805.00000
1279.76129	0.35969	0.43682	24372.77955	913.59084	11161.12024	1277.68620	0.43783	24166.00000	906.00000	11090.00000
1285.95565	0.36409	0.43243	24945.52650	893.87771	11294.42303	1283.87657	0.43411	24754.00000	903.00000	11257.00000
1292.15000	0.37013	0.42645	25532.41484	877.59600	11391.63738	1290.06694	0.42859	25332.00000	880.00000	11360.00000
1298.34435	0.37755	0.41923	26175.67024	884.75253	11487.30315	1296.25731	0.42181	25949.00000	881.00000	11455.00000
1304.53871	0.38711	0.41010	26805.92834	868.00311	11505.07636	1302.44769	0.41346	26610.00000	881.00000	11519.00000
1310.73306	0.39880	0.39921	27432.03993	867.23944	11472.06221	1308.63806	0.40295	27196.00000	853.00000	11468.00000
1316.92742	0.41192	0.38733	28161.82657	892.73544	11454.76799	1314.82843	0.39155	27925.00000	899.00000	11481.00000
1323.12177	0.42688	0.37421	28842.74169	862.95220	11333.27589	1321.01880	0.37870	28606.00000	864.00000	11370.00000
1329.31613	0.44261	0.36090	29519.54369	871.94640	11210.97786	1327.20917	0.36544	29300.00000	874.00000	11262.00000
1335.51048	0.45840	0.34802	30183.25265	863.66515	11067.34946	1333.39954	0.35228	29944.00000	862.00000	11107.00000
1341.70484	0.47313	0.33641	30926.51890	893.32929	10996.90261	1339.58991	0.34023	30673.00000	881.00000	11017.00000
1347.89919	0.48660	0.32613	31587.63481	894.88004	10904.94550	1345.78028	0.32951	31380.00000	904.00000	10946.00000
1354.09355	0.49901	0.31695	32227.78710	859.30420	10801.41255	1351.97065	0.32001	31988.00000	867.00000	10826.00000
1360.28790	0.51150	0.30796	32929.95072	867.11433	10741.49582	1358.16102	0.31112	32704.00000	861.00000	10768.00000
1366.48226	0.52679	0.29731	33569.06337	866.55753	10589.31240	1364.35139	0.30131	33341.00000	873.00000	10656.00000
1372.67661	0.54785	0.28324	34261.83351	843.87902	10308.95015	1370.54176	0.28852	34024.00000	848.00000	10420.00000
1378.87097	0.57706	0.26482	34838.67465	870.52277	9865.86795	1376.73213	0.27173	34668.00000	855.00000	10043.00000
1385.06532	0.61559	0.24233	35121.03064	877.10458	9175.54473	1382.92250	0.25042	35059.00000	888.00000	9445.00000
1391.25968	0.65997	0.21879	35289.43299	872.38486	8402.35423	1389.11287	0.22683	35214.00000	858.00000	8651.00000
1397.45403	0.70495	0.19727	35460.60298	899.47130	7717.49525	1395.30324	0.20440	35427.00000	906.00000	7962.00000
1403.64839	0.74566	0.17961	35666.10671	869.36576	7119.24895	1401.49361	0.18521	35545.00000	870.00000	7292.00000
1409.84274	0.77901	0.16634	36323.03255	883.09719	6777.99712	1407.68398	0.17056	36050.00000	883.00000	6881.00000
1416.03710	0.80517	0.15661	37284.68636	884.03189	6584.95815	1413.87435	0.15960	36926.00000	879.00000	6632.00000
1422.23145	0.82433	0.14986	38329.42739	892.53935	6502.67439	1420.06472	0.15199	37970.00000	895.00000	6530.00000
1428.42581	0.83866	0.14499	39434.74114	878.71439	6468.93595	1426.25509	0.14648	39022.00000	881.00000	6468.00000
1434.62016	0.84849	0.14175	40575.07439	880.06733	6506.72025	1432.44546	0.14274	40203.00000	880.00000	6493.00000
1440.81452	0.85486	0.13968	41493.68414	879.47622	6552.57114	1438.63583	0.14028	41184.00000	879.00000	6533.00000
1447.00887	0.85795	0.13869	42510.04768	905.41306	6675.70101	1444.82620	0.13893	42113.00000	891.00000	6618.00000
1453.20323	0.85962	0.13816	43543.72896	892.86717	6785.43929	1451.01657	0.13837	43229.00000	914.00000	6769.00000
1459.39758	0.85979	0.13811	44405.02794	864.61268	6877.83847	1457.20694	0.13796	44070.00000	855.00000	6817.00000
1465.59194	0.85658	0.13913	45481.34063	906.97918	7108.55409	1463.39731	0.13872	45094.00000	903.00000	7033.00000
1471.78629	0.85155	0.14075	46480.51435	890.87025	7307.69523	1469.58768	0.14007	46150.00000	894.00000	7233.00000
1477.98065	0.84416	0.14317	47320.91755	868.50781	7518.85915	1475.77805	0.14224	47029.00000	883.00000	7447.00000
1484.17500	0.83509	0.14619	48225.65661	857.63729	7782.29099	1481.96842	0.14503	47881.00000	849.00000	7670.00000
1490.36935	0.82494	0.14964	49092.30051	893.89890	8106.32677	1488.15879	0.14840	48824.00000	887.00000	8001.00000
1496.56371	0.81459	0.15326	49778.04514	887.35808	8380.19912	1494.34916	0.15192	49521.00000	891.00000	8279.00000
1502.75806	0.80371	0.15714	50469.48096	863.36996	8658.46406	1500.53953	0.15573	50241.00000	875.00000	8563.00000
1508.95242	0.79257	0.16122	51158.04064	897.54966	9000.82143	1506.72990	0.15973	50884.00000	867.00000	8856.00000
1515.14677	0.78179	0.16527	51878.91086	902.58342	9327.58821	1512.92027	0.16387	51650.00000	933.00000	9244.00000
1521.34113	0.77128	0.16933	52577.57434	850.45197	9609.27854	1519.11064	0.16779	52288.00000	838.00000	9471.00000
1527.53548	0.76062	0.17353	53324.26188	911.75147	10006.84971	1525.30101	0.17208	53098.00000	907.00000	9888.00000
1533.72984	0.75088	0.17747	53919.19306	885.74627	10297.63539	1531.49138	0.17602	53680.00000	890.00000	10182.00000
1539.92419	0.74127	0.18144	54593.00479	874.24673	10620.72310	1537.68175	0.18004	54367.00000	884.00000	10513.00000
1546.11855	0.73221	0.18526	55208.54831	866.87961	10934.46903	1543.87212	0.18386	54973.00000	860.00000	10809.00000
1552.31290	0.72321	0.18914	55811.51925	888.84465	11276.89297	1550.06249	0.18775	55614.00000	887.00000	11162.00000
1558.50726	0.71452	0.19297	56431.29012	888.46797	11606.53780	1556.25286	0.19156	56172.00000	885.00000	11476.00000
1564.70161	0.70650	0.19656	57011.94896	890.80855	11921.86999	1562.44323	0.19533	56858.00000	895.00000	11826.00000
1570.89597	0.69914	0.19992	57413.89650	869.93991	12174.33207	1568.63360	0.19865	57231.00000	876.00000	12071.00000
1577.09032	0.69155	0.20345	57979.03512	879.44141	12496.12576	1574.82397	0.20218	57786.00000	871.00000	12378.00000
1583.28468	0.68458	0.20674	58450.11400	894.72676	12793.71596	1581.01434	0.20556	58279.00000	894.00000	12690.00000
1589.47903	0.67812	0.20984	58825.25008	895.18773	13051.00710	1587.20471	0.20872	58712.00000	892.00000	12960.00000
1595.67339	0.67193	0.21285	59146.72764	885.70009	13286.49255	1593.39508	0.21174	59009.00000	896.00000	13201.00000
1601.86774	0.66582	0.21586	59574.82387	893.37146	13560.57036	1599.58545	0.21475	59419.00000	877.00000	13449.00000
1608.06210	0.66026	0.21865	59920.72690	909.46488	13812.10329	1605.77582	0.21768	59809.00000	920.00000	13739.00000
1614.25645	0.65507	0.22127	60220.95853	887.30010	14016.25435	1611.96619	0.22026	60102.00000	882.00000	13926.00000
1620.45081	0.65016	0.22379	60438.83040	897.12192	14222.01181	1618.15656	0.22294	60391.00000	905.00000	14167.00000
1626.64516	0.64580	0.22605	60579.30309	884.35356	14378.14641	1624.34693	0.22516	60502.00000	878.00000	14303.00000
1632.83952	0.64143	0.22833	60848.95373	899.57786	14587.94646	1630.53730	0.22755	60754.00000	903.00000	14522.00000
1639.03387	0.63786	0.23022	60928.35809	870.27700	14696.72053	1636.72767	0.22952	60938.00000	879.00000	14664.00000
1645.22823	0.63436	0.23208	60778.06969	873.98452	14776.65440	1642.91804	0.23139	60849.00000	868.00000	14747.00000
1651.42258	0.63097	0.23390	59777.88214	914.49031	14682.40491	1649.10841	0.23323	60357.00000	896.00000	14764.00000
1657.61694	0.62864	0.23516	57642.70006	920.63108	14259.24334	1655.29878	0.23482	58452.00000	931.00000	14438.00000
1663.81129	0.62706	0.23602	56689.89176	898.36344	14066.30703	1661.48915	0.23562	56762.00000	897.00000	14060.00000
1670.00565	0.62489	0.23720	55553.85124	917.06266	13876.24316	1667.67952	0.23678	56404.00000	914.00000	14053.00000
1676.20000	0.62364	0.23788	52318.47966	879.24303	13116.06183	1673.86989	0.23770	53497.00000	901.00000	13403.00000
0.00000	0.00000	0.00000	0.00000	0.00000	0.00000	1680.06026	0.23821	50136.00000	860.00000	12598.00000
0.00000	0.00000	0.00000	0.00000	0.00000	0.00000	1686.25063	0.23909	46019.00000	923.00000	11705.00000
0.00000	0.00000	0.00000	0.00000	0.00000	0.00000	1692.44100	0.23909	46019.00000	923.00000	11705.00000
