'File 苹果_3_2016一月28_1124.xls
'Part ID 苹果_3
'Scan Created 2016/1/28 11:24:25
'Instrument S1-00205
'Version 1.5.7
'Integration Time 10100 s
'Number of Scans 50
'Units Absorbance
'Thermistor 48.72
Wavelength	Absorbance	Normalized	100%	dark	Raw 1	Native Wvl	Native Norm	Native 100%	Native dark	Native 1
908.10000	0.38884	0.40847	3595.82598	881.87120	1989.23524	906.26400	0.39836	3684.00000	880.00000	1997.00000
914.29435	0.35502	0.44155	3338.07467	866.26472	1958.04783	912.45437	0.43196	3404.00000	876.00000	1968.00000
920.48871	0.32298	0.47536	3265.72768	878.51909	2013.29590	918.64474	0.46475	3257.00000	860.00000	1974.00000
926.68306	0.29392	0.50826	3334.01990	918.74175	2146.21375	924.83511	0.49958	3324.00000	924.00000	2123.00000
932.87742	0.27179	0.53482	3389.36197	864.93184	2215.18532	931.02548	0.52661	3355.00000	875.00000	2181.00000
939.07177	0.25209	0.55965	3619.59224	884.95115	2415.37397	937.21585	0.55330	3537.00000	873.00000	2347.00000
945.26613	0.24276	0.57180	3856.44440	889.93616	2586.12746	943.40622	0.56961	3802.00000	900.00000	2553.00000
951.46048	0.24351	0.57081	4005.12223	859.91735	2655.28071	949.59659	0.57235	3955.00000	859.00000	2631.00000
957.65484	0.25137	0.56057	4215.51392	893.73656	2755.69121	955.78696	0.56420	4148.00000	885.00000	2726.00000
963.84919	0.25755	0.55265	4374.23623	878.43417	2810.47064	961.97733	0.55372	4344.00000	891.00000	2803.00000
970.04355	0.25608	0.55452	4523.41127	896.06510	2907.54415	968.16770	0.55360	4453.00000	871.00000	2854.00000
976.23790	0.25623	0.55433	4726.50938	925.04592	3032.14696	974.35807	0.55523	4693.00000	945.00000	3026.00000
982.43226	0.25658	0.55389	4835.26800	856.06452	3060.27919	980.54844	0.55275	4778.00000	854.00000	3023.00000
988.62661	0.25177	0.56005	5079.18703	905.14928	3242.71309	986.73881	0.55861	5013.00000	901.00000	3198.00000
994.82097	0.24966	0.56278	5288.13901	870.37131	3356.69627	992.92918	0.56194	5216.00000	881.00000	3317.00000
1001.01532	0.24706	0.56617	5547.24444	876.96250	3520.98125	999.11955	0.56507	5470.00000	867.00000	3468.00000
1007.20968	0.24263	0.57197	5821.73207	889.84005	3710.91011	1005.30992	0.56963	5729.00000	896.00000	3649.00000
1013.40403	0.23365	0.58391	6108.36987	875.33513	3930.76298	1011.50029	0.57954	6031.00000	870.00000	3861.00000
1019.59839	0.22241	0.59922	6349.51155	919.49996	4173.44091	1017.69066	0.59467	6269.00000	908.00000	4096.00000
1025.79274	0.21383	0.61118	6610.09178	908.88037	4393.22629	1023.88103	0.60801	6536.00000	921.00000	4335.00000
1031.98710	0.20674	0.62125	6863.27600	885.10537	4599.11699	1030.07140	0.61785	6776.00000	883.00000	4524.00000
1038.18145	0.19926	0.63204	7137.95533	879.30949	4834.92397	1036.26177	0.62901	7062.00000	892.00000	4773.00000
1044.37581	0.19353	0.64043	7415.45215	852.78191	5055.77336	1042.45214	0.63790	7313.00000	848.00000	4972.00000
1050.57016	0.18855	0.64781	7763.75520	889.74850	5342.75209	1048.64251	0.64572	7664.00000	884.00000	5262.00000
1056.76452	0.18499	0.65315	8043.98752	873.54577	5556.94836	1054.83288	0.65169	7958.00000	881.00000	5493.00000
1062.95887	0.18271	0.65659	8346.47029	875.55305	5780.89596	1061.02325	0.65573	8246.00000	868.00000	5706.00000
1069.15323	0.18212	0.65748	8651.05608	883.28349	5990.41086	1067.21362	0.65754	8564.00000	890.00000	5936.00000
1075.34758	0.18270	0.65660	8931.01237	859.29405	6159.25094	1073.40399	0.65685	8836.00000	860.00000	6099.00000
1081.54194	0.18417	0.65438	9243.78719	871.40916	6350.07791	1079.59436	0.65551	9149.00000	870.00000	6297.00000
1087.73629	0.18731	0.64966	9580.78777	901.76500	6540.26476	1085.78473	0.65112	9462.00000	883.00000	6469.00000
1093.93065	0.19108	0.64405	9940.76391	922.65990	6730.77485	1091.97510	0.64616	9841.00000	933.00000	6689.00000
1100.12500	0.19683	0.63558	10254.38783	869.25749	6834.22504	1098.16547	0.63846	10144.00000	878.00000	6794.00000
1106.31935	0.20275	0.62698	10641.04469	875.00467	6998.18705	1104.35584	0.62948	10519.00000	873.00000	6945.00000
1112.51371	0.20810	0.61930	11015.80766	872.41348	7154.16626	1110.54621	0.62187	10897.00000	874.00000	7107.00000
1118.70806	0.21514	0.60935	11401.60672	872.77123	7288.47278	1116.73658	0.61288	11276.00000	871.00000	7248.00000
1124.90242	0.22559	0.59485	11814.30888	885.70510	7386.72567	1122.92695	0.60015	11680.00000	881.00000	7362.00000
1131.09677	0.24248	0.57217	12236.17715	886.26842	7380.08947	1129.11732	0.58058	12103.00000	890.00000	7400.00000
1137.29113	0.26718	0.54053	12606.57558	854.95675	7207.32490	1135.30769	0.55129	12498.00000	867.00000	7279.00000
1143.48548	0.29434	0.50776	12995.31207	851.62722	7017.43592	1141.49806	0.51774	12851.00000	843.00000	7060.00000
1149.67984	0.31617	0.48286	13491.13514	894.93569	6977.40046	1147.68843	0.48968	13335.00000	884.00000	6981.00000
1155.87419	0.33054	0.46715	13953.07917	885.15852	6989.71608	1153.87880	0.47153	13805.00000	896.00000	6983.00000
1162.06855	0.33990	0.45720	14446.12872	862.12568	7072.73342	1160.06917	0.45979	14279.00000	862.00000	7031.00000
1168.26290	0.34483	0.45204	14959.02414	891.75197	7250.70436	1166.25954	0.45334	14800.00000	881.00000	7191.00000
1174.45726	0.34845	0.44829	15420.71473	898.79570	7408.72011	1172.44991	0.44962	15273.00000	903.00000	7364.00000
1180.65161	0.35281	0.44380	15876.41905	861.08105	7524.85265	1178.64028	0.44523	15728.00000	875.00000	7488.00000
1186.84597	0.35614	0.44041	16371.22020	852.06070	7686.94058	1184.83065	0.44129	16201.00000	846.00000	7622.00000
1193.04032	0.35824	0.43829	16894.18264	880.38932	7899.03728	1191.02102	0.43898	16730.00000	875.00000	7835.00000
1199.23468	0.35960	0.43691	17400.55626	883.09277	8099.82573	1197.21139	0.43714	17229.00000	882.00000	8028.00000
1205.42903	0.35915	0.43737	17922.85290	876.52702	8332.01307	1203.40176	0.43707	17758.00000	882.00000	8258.00000
1211.62339	0.35729	0.43925	18412.23826	867.41129	8573.97985	1209.59213	0.43845	18250.00000	866.00000	8488.00000
1217.81774	0.35384	0.44275	18946.64823	877.09601	8877.34307	1215.78250	0.44144	18763.00000	876.00000	8772.00000
1224.01210	0.34942	0.44728	19522.38589	879.59709	9218.12872	1221.97287	0.44574	19334.00000	877.00000	9104.00000
1230.20645	0.34552	0.45132	20046.82356	877.27220	9528.77182	1228.16324	0.45016	19884.00000	882.00000	9436.00000
1236.40081	0.34230	0.45468	20578.92550	894.33634	9844.54070	1234.35361	0.45348	20387.00000	878.00000	9725.00000
1242.59516	0.33922	0.45790	21116.97255	904.50586	10159.83299	1240.54398	0.45702	20962.00000	919.00000	10079.00000
1248.78952	0.33733	0.45991	21555.61107	852.78714	10374.13807	1246.73435	0.45928	21399.00000	858.00000	10292.00000
1254.98387	0.33551	0.46183	22112.97196	897.03001	10695.31217	1252.92472	0.46119	21917.00000	878.00000	10581.00000
1261.17823	0.33431	0.46311	22669.33634	902.45329	10982.94646	1259.11509	0.46286	22498.00000	915.00000	10905.00000
1267.37258	0.33476	0.46264	23144.86310	840.51764	11159.35556	1265.30546	0.46299	22985.00000	857.00000	11102.00000
1273.56694	0.33601	0.46131	23720.39347	860.92978	11406.25534	1271.49583	0.46173	23506.00000	841.00000	11306.00000
1279.76129	0.33787	0.45934	24372.77955	913.59084	11689.27598	1277.68620	0.46023	24166.00000	906.00000	11611.00000
1285.95565	0.34173	0.45527	24945.52650	893.87771	11843.89028	1283.87657	0.45684	24754.00000	903.00000	11799.00000
1292.15000	0.34719	0.44959	25532.41484	877.59600	11962.12344	1290.06694	0.45166	25332.00000	880.00000	11924.00000
1298.34435	0.35403	0.44256	26175.67024	884.75253	12077.52862	1296.25731	0.44507	25949.00000	881.00000	12038.00000
1304.53871	0.36273	0.43378	26805.92834	868.00311	12119.42134	1302.44769	0.43702	26610.00000	881.00000	12125.00000
1310.73306	0.37346	0.42319	27432.03993	867.23944	12109.31054	1308.63806	0.42687	27196.00000	853.00000	12098.00000
1316.92742	0.38556	0.41156	28161.82657	892.73544	12115.68013	1314.82843	0.41567	27925.00000	899.00000	12133.00000
1323.12177	0.39937	0.39869	28842.74169	862.95220	12018.11570	1321.01880	0.40314	28606.00000	864.00000	12048.00000
1329.31613	0.41407	0.38541	29519.54369	871.94640	11913.12688	1327.20917	0.38992	29300.00000	874.00000	11958.00000
1335.51048	0.42872	0.37263	30183.25265	863.66515	11789.04217	1333.39954	0.37687	29944.00000	862.00000	11822.00000
1341.70484	0.44234	0.36113	30926.51890	893.32929	11739.23103	1339.58991	0.36490	30673.00000	881.00000	11752.00000
1347.89919	0.45473	0.35097	31587.63481	894.88004	11667.11108	1345.78028	0.35431	31380.00000	904.00000	11702.00000
1354.09355	0.46626	0.34178	32227.78710	859.30420	11580.19469	1351.97065	0.34485	31988.00000	867.00000	11599.00000
1360.28790	0.47784	0.33278	32929.95072	867.11433	11537.18080	1358.16102	0.33593	32704.00000	861.00000	11558.00000
1366.48226	0.49189	0.32219	33569.06337	866.55753	11402.91822	1364.35139	0.32617	33341.00000	873.00000	11463.00000
1372.67661	0.51128	0.30812	34261.83351	843.87902	11140.48336	1370.54176	0.31342	34024.00000	848.00000	11246.00000
1378.87097	0.53801	0.28972	34838.67465	870.52277	10711.95729	1376.73213	0.29660	34668.00000	855.00000	10884.00000
1385.06532	0.57295	0.26733	35121.03064	877.10458	10031.70664	1382.92250	0.27541	35059.00000	888.00000	10299.00000
1391.25968	0.61293	0.24382	35289.43299	872.38486	9263.84445	1389.11287	0.25183	35214.00000	858.00000	9510.00000
1397.45403	0.65297	0.22234	35460.60298	899.47130	8584.20066	1395.30324	0.22948	35427.00000	906.00000	8828.00000
1403.64839	0.68932	0.20449	35666.10671	869.36576	7984.98660	1401.49361	0.21018	35545.00000	870.00000	8158.00000
1409.84274	0.71945	0.19079	36323.03255	883.09719	7644.51108	1407.68398	0.19518	36050.00000	883.00000	7747.00000
1416.03710	0.74322	0.18063	37284.68636	884.03189	7459.02955	1413.87435	0.18373	36926.00000	879.00000	7502.00000
1422.23145	0.76058	0.17355	38329.42739	892.53935	7389.56737	1420.06472	0.17581	37970.00000	895.00000	7413.00000
1428.42581	0.77373	0.16837	39434.74114	878.71439	7370.52395	1426.25509	0.16995	39022.00000	881.00000	7363.00000
1434.62016	0.78283	0.16488	40575.07439	880.06733	7425.06529	1432.44546	0.16598	40203.00000	880.00000	7407.00000
1440.81452	0.78875	0.16265	41493.68414	879.47622	7485.42075	1438.63583	0.16326	41184.00000	879.00000	7459.00000
1447.00887	0.79141	0.16166	42510.04768	905.41306	7631.05507	1444.82620	0.16193	42113.00000	891.00000	7566.00000
1453.20323	0.79309	0.16103	43543.72896	892.86717	7761.02948	1451.01657	0.16124	43229.00000	914.00000	7737.00000
1459.39758	0.79313	0.16101	44405.02794	864.61268	7875.29259	1457.20694	0.16087	44070.00000	855.00000	7807.00000
1465.59194	0.79036	0.16205	45481.34063	906.97918	8130.08476	1463.39731	0.16162	45094.00000	903.00000	8045.00000
1471.78629	0.78591	0.16372	46480.51435	890.87025	8354.62836	1469.58768	0.16303	46150.00000	894.00000	8272.00000
1477.98065	0.77948	0.16616	47320.91755	868.50781	8586.86982	1475.77805	0.16521	47029.00000	883.00000	8507.00000
1484.17500	0.77144	0.16926	48225.65661	857.63729	8875.40193	1481.96842	0.16808	47881.00000	849.00000	8754.00000
1490.36935	0.76241	0.17282	49092.30051	893.89890	9223.42465	1488.15879	0.17154	48824.00000	887.00000	9110.00000
1496.56371	0.75327	0.17650	49778.04514	887.35808	9516.44036	1494.34916	0.17516	49521.00000	891.00000	9409.00000
1502.75806	0.74378	0.18039	50469.48096	863.36996	9811.92069	1500.53953	0.17897	50241.00000	875.00000	9710.00000
1508.95242	0.73384	0.18457	51158.04064	897.54966	10174.14001	1506.72990	0.18304	50884.00000	867.00000	10022.00000
1515.14677	0.72442	0.18862	51878.91086	902.58342	10517.55142	1512.92027	0.18724	51650.00000	933.00000	10429.00000
1521.34113	0.71525	0.19264	52577.57434	850.45197	10815.28658	1519.11064	0.19110	52288.00000	838.00000	10670.00000
1527.53548	0.70577	0.19690	53324.26188	911.75147	11231.38265	1525.30101	0.19544	53098.00000	907.00000	11107.00000
1533.72984	0.69718	0.20083	53919.19306	885.74627	11536.34170	1531.49138	0.19937	53680.00000	890.00000	11415.00000
1539.92419	0.68872	0.20477	54593.00479	874.24673	11874.40896	1537.68175	0.20339	54367.00000	884.00000	11762.00000
1546.11855	0.68078	0.20855	55208.54831	866.87961	12200.10891	1543.87212	0.20716	54973.00000	860.00000	12070.00000
1552.31290	0.67282	0.21241	55811.51925	888.84465	12555.11564	1550.06249	0.21103	55614.00000	887.00000	12436.00000
1558.50726	0.66520	0.21617	56431.29012	888.46797	12895.48343	1556.25286	0.21481	56172.00000	885.00000	12761.00000
1564.70161	0.65812	0.21973	57011.94896	890.80855	13221.90053	1562.44323	0.21848	56858.00000	895.00000	13122.00000
1570.89597	0.65149	0.22311	57413.89650	869.93991	13485.34252	1568.63360	0.22184	57231.00000	876.00000	13378.00000
1577.09032	0.64474	0.22660	57979.03512	879.44141	13818.12510	1574.82397	0.22534	57786.00000	871.00000	13696.00000
1583.28468	0.63854	0.22986	58450.11400	894.72676	14124.26984	1581.01434	0.22870	58279.00000	894.00000	14018.00000
1589.47903	0.63275	0.23294	58825.25008	895.18773	14389.58199	1587.20471	0.23181	58712.00000	892.00000	14295.00000
1595.67339	0.62712	0.23598	59146.72764	885.70009	14634.29386	1593.39508	0.23489	59009.00000	896.00000	14546.00000
1601.86774	0.62168	0.23896	59574.82387	893.37146	14915.63956	1599.58545	0.23785	59419.00000	877.00000	14801.00000
1608.06210	0.61652	0.24181	59920.72690	909.46488	15179.00557	1605.77582	0.24081	59809.00000	920.00000	15101.00000
1614.25645	0.61179	0.24446	60220.95853	887.30010	15392.21206	1611.96619	0.24347	60102.00000	882.00000	15300.00000
1620.45081	0.60743	0.24693	60438.83040	897.12192	15599.68043	1618.15656	0.24609	60391.00000	905.00000	15544.00000
1626.64516	0.60345	0.24920	60579.30309	884.35356	15760.39124	1624.34693	0.24831	60502.00000	878.00000	15683.00000
1632.83952	0.59943	0.25152	60848.95373	899.57786	15977.83757	1630.53730	0.25072	60754.00000	903.00000	15909.00000
1639.03387	0.59617	0.25341	60928.35809	870.27700	16089.63487	1636.72767	0.25272	60938.00000	879.00000	16057.00000
1645.22823	0.59299	0.25528	60778.06969	873.98452	16166.18531	1642.91804	0.25458	60849.00000	868.00000	16138.00000
1651.42258	0.58988	0.25711	59777.88214	914.49031	16048.72584	1649.10841	0.25644	60357.00000	896.00000	16144.00000
1657.61694	0.58777	0.25836	57642.70006	920.63108	15575.43372	1655.29878	0.25803	58452.00000	931.00000	15773.00000
1663.81129	0.58634	0.25922	56689.89176	898.36344	15360.72200	1661.48915	0.25882	56762.00000	897.00000	15356.00000
1670.00565	0.58433	0.26042	55553.85124	917.06266	15144.92978	1667.67952	0.25999	56404.00000	914.00000	15341.00000
1676.20000	0.58308	0.26117	52318.47966	879.24303	14314.01993	1673.86989	0.26095	53497.00000	901.00000	14626.00000
0.00000	0.00000	0.00000	0.00000	0.00000	0.00000	1680.06026	0.26155	50136.00000	860.00000	13748.00000
0.00000	0.00000	0.00000	0.00000	0.00000	0.00000	1686.25063	0.26240	46019.00000	923.00000	12756.00000
0.00000	0.00000	0.00000	0.00000	0.00000	0.00000	1692.44100	0.26240	46019.00000	923.00000	12756.00000
