'File 苹果_4_2016一月28_1124.xls
'Part ID 苹果_4
'Scan Created 2016/1/28 11:24:30
'Instrument S1-00205
'Version 1.5.7
'Integration Time 10100 s
'Number of Scans 50
'Units Absorbance
'Thermistor 48.72
Wavelength	Absorbance	Normalized	100%	dark	Raw 1	Native Wvl	Native Norm	Native 100%	Native dark	Native 1
908.10000	0.40472	0.39380	3595.82598	881.87120	1949.37761	906.26400	0.38338	3684.00000	880.00000	1955.00000
914.29435	0.36931	0.42726	3338.07467	866.26472	1922.74941	912.45437	0.41772	3404.00000	876.00000	1932.00000
920.48871	0.33569	0.46164	3265.72768	878.51909	1980.55043	918.64474	0.45056	3257.00000	860.00000	1940.00000
926.68306	0.30547	0.49491	3334.01990	918.74175	2113.95915	924.83511	0.48667	3324.00000	924.00000	2092.00000
932.87742	0.28419	0.51977	3389.36197	864.93184	2177.22473	931.02548	0.51169	3355.00000	875.00000	2144.00000
939.07177	0.26300	0.54576	3619.59224	884.95115	2377.40079	937.21585	0.53904	3537.00000	873.00000	2309.00000
945.26613	0.25313	0.55831	3856.44440	889.93616	2546.09969	943.40622	0.55617	3802.00000	900.00000	2514.00000
951.46048	0.25432	0.55678	4005.12223	859.91735	2611.15220	949.59659	0.55846	3955.00000	859.00000	2588.00000
957.65484	0.26236	0.54657	4215.51392	893.73656	2709.18347	955.78696	0.55011	4148.00000	885.00000	2680.00000
963.84919	0.26875	0.53858	4374.23623	878.43417	2761.26650	961.97733	0.53982	4344.00000	891.00000	2755.00000
970.04355	0.26807	0.53942	4523.41127	896.06510	2852.77577	968.16770	0.53881	4453.00000	871.00000	2801.00000
976.23790	0.26851	0.53887	4726.50938	925.04592	2973.41905	974.35807	0.53975	4693.00000	945.00000	2968.00000
982.43226	0.26876	0.53856	4835.26800	856.06452	2999.27323	980.54844	0.53746	4778.00000	854.00000	2963.00000
988.62661	0.26407	0.54441	5079.18703	905.14928	3177.45824	986.73881	0.54304	5013.00000	901.00000	3134.00000
994.82097	0.26233	0.54660	5288.13901	870.37131	3285.17731	992.92918	0.54602	5216.00000	881.00000	3248.00000
1001.01532	0.25973	0.54988	5547.24444	876.96250	3445.01052	999.11955	0.54856	5470.00000	867.00000	3392.00000
1007.20968	0.25488	0.55606	5821.73207	889.84005	3632.36080	1005.30992	0.55390	5729.00000	896.00000	3573.00000
1013.40403	0.24626	0.56720	6108.36987	875.33513	3843.38761	1011.50029	0.56288	6031.00000	870.00000	3775.00000
1019.59839	0.23477	0.58241	6349.51155	919.49996	4082.10679	1017.69066	0.57806	6269.00000	908.00000	4007.00000
1025.79274	0.22645	0.59367	6610.09178	908.88037	4293.45505	1023.88103	0.59056	6536.00000	921.00000	4237.00000
1031.98710	0.21899	0.60396	6863.27600	885.10537	4495.74868	1030.07140	0.60054	6776.00000	883.00000	4422.00000
1038.18145	0.21132	0.61472	7137.95533	879.30949	4726.58507	1036.26177	0.61167	7062.00000	892.00000	4666.00000
1044.37581	0.20530	0.62330	7415.45215	852.78191	4943.35329	1042.45214	0.62073	7313.00000	848.00000	4861.00000
1050.57016	0.20018	0.63070	7763.75520	889.74850	5225.12048	1048.64251	0.62861	7664.00000	884.00000	5146.00000
1056.76452	0.19649	0.63608	8043.98752	873.54577	5434.55324	1054.83288	0.63459	7958.00000	881.00000	5372.00000
1062.95887	0.19420	0.63944	8346.47029	875.55305	5652.71520	1061.02325	0.63866	8246.00000	868.00000	5580.00000
1069.15323	0.19352	0.64044	8651.05608	883.28349	5858.10358	1067.21362	0.64034	8564.00000	890.00000	5804.00000
1075.34758	0.19390	0.63988	8931.01237	859.29405	6024.21471	1073.40399	0.64017	8836.00000	860.00000	5966.00000
1081.54194	0.19545	0.63760	9243.78719	871.40916	6209.59186	1079.59436	0.63860	9149.00000	870.00000	6157.00000
1087.73629	0.19848	0.63317	9580.78777	901.76500	6397.03945	1085.78473	0.63469	9462.00000	883.00000	6328.00000
1093.93065	0.20260	0.62719	9940.76391	922.65990	6578.69172	1091.97510	0.62932	9841.00000	933.00000	6539.00000
1100.12500	0.20839	0.61889	10254.38783	869.25749	6677.55704	1098.16547	0.62174	10144.00000	878.00000	6639.00000
1106.31935	0.21446	0.61029	10641.04469	875.00467	6835.22681	1104.35584	0.61279	10519.00000	873.00000	6784.00000
1112.51371	0.21994	0.60264	11015.80766	872.41348	6985.25631	1110.54621	0.60521	10897.00000	874.00000	6940.00000
1118.70806	0.22713	0.59274	11401.60672	872.77123	7113.66332	1116.73658	0.59625	11276.00000	871.00000	7075.00000
1124.90242	0.23772	0.57847	11814.30888	885.70510	7207.70241	1122.92695	0.58367	11680.00000	881.00000	7184.00000
1131.09677	0.25484	0.55611	12236.17715	886.26842	7197.88016	1129.11732	0.56443	12103.00000	890.00000	7219.00000
1137.29113	0.27992	0.52490	12606.57558	854.95675	7023.59618	1135.30769	0.53547	12498.00000	867.00000	7095.00000
1143.48548	0.30732	0.49281	12995.31207	851.62722	6835.94462	1141.49806	0.50258	12851.00000	843.00000	6878.00000
1149.67984	0.32928	0.46851	13491.13514	894.93569	6796.60732	1147.68843	0.47514	13335.00000	884.00000	6800.00000
1155.87419	0.34402	0.45288	13953.07917	885.15852	6803.20809	1153.87880	0.45736	13805.00000	896.00000	6800.00000
1162.06855	0.35409	0.44250	14446.12872	862.12568	6873.08682	1160.06917	0.44518	14279.00000	862.00000	6835.00000
1168.26290	0.35937	0.43715	14959.02414	891.75197	7041.28450	1166.25954	0.43854	14800.00000	881.00000	6985.00000
1174.45726	0.36356	0.43296	15420.71473	898.79570	7186.08970	1172.44991	0.43445	15273.00000	903.00000	7146.00000
1180.65161	0.36830	0.42825	15876.41905	861.08105	7291.40038	1178.64028	0.42968	15728.00000	875.00000	7257.00000
1186.84597	0.37176	0.42485	16371.22020	852.06070	7445.40958	1184.83065	0.42579	16201.00000	846.00000	7384.00000
1193.04032	0.37420	0.42247	16894.18264	880.38932	7645.70658	1191.02102	0.42321	16730.00000	875.00000	7585.00000
1199.23468	0.37580	0.42092	17400.55626	883.09277	7835.61424	1197.21139	0.42124	17229.00000	882.00000	7768.00000
1205.42903	0.37554	0.42117	17922.85290	876.52702	8055.95624	1203.40176	0.42089	17758.00000	882.00000	7985.00000
1211.62339	0.37358	0.42307	18412.23826	867.41129	8290.15260	1209.59213	0.42228	18250.00000	866.00000	8207.00000
1217.81774	0.37017	0.42642	18946.64823	877.09601	8582.26995	1215.78250	0.42517	18763.00000	876.00000	8481.00000
1224.01210	0.36592	0.43061	19522.38589	879.59709	8907.34522	1221.97287	0.42921	19334.00000	877.00000	8799.00000
1230.20645	0.36208	0.43443	20046.82356	877.27220	9205.04178	1228.16324	0.43327	19884.00000	882.00000	9115.00000
1236.40081	0.35881	0.43771	20578.92550	894.33634	9510.51946	1234.35361	0.43662	20387.00000	878.00000	9396.00000
1242.59516	0.35587	0.44069	21116.97255	904.50586	9811.82717	1240.54398	0.43980	20962.00000	919.00000	9734.00000
1248.78952	0.35385	0.44274	21555.61107	852.78714	10018.81465	1246.73435	0.44214	21399.00000	858.00000	9940.00000
1254.98387	0.35203	0.44460	22112.97196	897.03001	10329.61725	1252.92472	0.44394	21917.00000	878.00000	10218.00000
1261.17823	0.35078	0.44588	22669.33634	902.45329	10607.82615	1259.11509	0.44567	22498.00000	915.00000	10534.00000
1267.37258	0.35126	0.44539	23144.86310	840.51764	10774.68592	1265.30546	0.44568	22985.00000	857.00000	10719.00000
1273.56694	0.35228	0.44435	23720.39347	860.92978	11018.55865	1271.49583	0.44469	23506.00000	841.00000	10920.00000
1279.76129	0.35412	0.44247	24372.77955	913.59084	11293.46096	1277.68620	0.44334	24166.00000	906.00000	11218.00000
1285.95565	0.35803	0.43850	24945.52650	893.87771	11440.61408	1283.87657	0.44002	24754.00000	903.00000	11398.00000
1292.15000	0.36330	0.43321	25532.41484	877.59600	11558.46634	1290.06694	0.43510	25332.00000	880.00000	11519.00000
1298.34435	0.36991	0.42667	26175.67024	884.75253	11675.46513	1296.25731	0.42907	25949.00000	881.00000	11637.00000
1304.53871	0.37881	0.41801	26805.92834	868.00311	11710.42982	1302.44769	0.42120	26610.00000	881.00000	11718.00000
1310.73306	0.38945	0.40789	27432.03993	867.23944	11702.84316	1308.63806	0.41134	27196.00000	853.00000	11689.00000
1316.92742	0.40133	0.39689	28161.82657	892.73544	11715.41298	1314.82843	0.40084	27925.00000	899.00000	11732.00000
1323.12177	0.41516	0.38445	28842.74169	862.95220	11619.89771	1321.01880	0.38872	28606.00000	864.00000	11648.00000
1329.31613	0.42973	0.37177	29519.54369	871.94640	11522.22549	1327.20917	0.37610	29300.00000	874.00000	11565.00000
1335.51048	0.44427	0.35953	30183.25265	863.66515	11404.87218	1333.39954	0.36356	29944.00000	862.00000	11435.00000
1341.70484	0.45783	0.34847	30926.51890	893.32929	11359.05877	1339.58991	0.35214	30673.00000	881.00000	11372.00000
1347.89919	0.47040	0.33853	31587.63481	894.88004	11285.49778	1345.78028	0.34178	31380.00000	904.00000	11320.00000
1354.09355	0.48183	0.32974	32227.78710	859.30420	11202.44792	1351.97065	0.33267	31988.00000	867.00000	11220.00000
1360.28790	0.49329	0.32115	32929.95072	867.11433	11164.37866	1358.16102	0.32415	32704.00000	861.00000	11183.00000
1366.48226	0.50733	0.31093	33569.06337	866.55753	11034.72600	1364.35139	0.31480	33341.00000	873.00000	11094.00000
1372.67661	0.52675	0.29734	34261.83351	843.87902	10780.24735	1370.54176	0.30242	34024.00000	848.00000	10881.00000
1378.87097	0.55350	0.27958	34838.67465	870.52277	10367.25207	1376.73213	0.28628	34668.00000	855.00000	10535.00000
1385.06532	0.58944	0.25737	35121.03064	877.10458	9690.63969	1382.92250	0.26543	35059.00000	888.00000	9958.00000
1391.25968	0.63125	0.23375	35289.43299	872.38486	8917.20954	1389.11287	0.24182	35214.00000	858.00000	9166.00000
1397.45403	0.67379	0.21194	35460.60298	899.47130	8224.62099	1395.30324	0.21923	35427.00000	906.00000	8474.00000
1403.64839	0.71341	0.19346	35666.10671	869.36576	7601.07725	1401.49361	0.19939	35545.00000	870.00000	7784.00000
1409.84274	0.74674	0.17917	36323.03255	883.09719	7232.79030	1407.68398	0.18372	36050.00000	883.00000	7344.00000
1416.03710	0.77338	0.16851	37284.68636	884.03189	7017.82004	1413.87435	0.17183	36926.00000	879.00000	7073.00000
1422.23145	0.79358	0.16085	38329.42739	892.53935	6914.24652	1420.06472	0.16326	37970.00000	895.00000	6948.00000
1428.42581	0.80884	0.15530	39434.74114	878.71439	6866.28479	1426.25509	0.15702	39022.00000	881.00000	6870.00000
1434.62016	0.81959	0.15150	40575.07439	880.06733	6893.82197	1432.44546	0.15266	40203.00000	880.00000	6883.00000
1440.81452	0.82663	0.14906	41493.68414	879.47622	6933.51685	1438.63583	0.14978	41184.00000	879.00000	6916.00000
1447.00887	0.83044	0.14776	42510.04768	905.41306	7053.02443	1444.82620	0.14810	42113.00000	891.00000	6996.00000
1453.20323	0.83253	0.14705	43543.72896	892.86717	7164.73833	1451.01657	0.14730	43229.00000	914.00000	7147.00000
1459.39758	0.83297	0.14690	44405.02794	864.61268	7260.83681	1457.20694	0.14680	44070.00000	855.00000	7199.00000
1465.59194	0.83030	0.14781	45481.34063	906.97918	7495.49601	1463.39731	0.14743	45094.00000	903.00000	7418.00000
1471.78629	0.82575	0.14937	46480.51435	890.87025	7700.45563	1469.58768	0.14871	46150.00000	894.00000	7624.00000
1477.98065	0.81888	0.15175	47320.91755	868.50781	7917.44305	1475.77805	0.15083	47029.00000	883.00000	7843.00000
1484.17500	0.81015	0.15483	48225.65661	857.63729	8191.61828	1481.96842	0.15364	47881.00000	849.00000	8075.00000
1490.36935	0.80034	0.15837	49092.30051	893.89890	8526.76250	1488.15879	0.15710	48824.00000	887.00000	8418.00000
1496.56371	0.79038	0.16204	49778.04514	887.35808	8809.65900	1494.34916	0.16068	49521.00000	891.00000	8705.00000
1502.75806	0.77989	0.16600	50469.48096	863.36996	9097.87264	1500.53953	0.16457	50241.00000	875.00000	8999.00000
1508.95242	0.76920	0.17014	51158.04064	897.54966	9448.72232	1506.72990	0.16862	50884.00000	867.00000	9301.00000
1515.14677	0.75903	0.17417	51878.91086	902.58342	9781.03257	1512.92027	0.17278	51650.00000	933.00000	9696.00000
1521.34113	0.74901	0.17823	52577.57434	850.45197	10070.14727	1519.11064	0.17668	52288.00000	838.00000	9928.00000
1527.53548	0.73873	0.18250	53324.26188	911.75147	10476.95450	1525.30101	0.18105	53098.00000	907.00000	10356.00000
1533.72984	0.72956	0.18640	53919.19306	885.74627	10771.22634	1531.49138	0.18496	53680.00000	890.00000	10654.00000
1539.92419	0.72046	0.19035	54593.00479	874.24673	11099.26801	1537.68175	0.18896	54367.00000	884.00000	10990.00000
1546.11855	0.71198	0.19410	55208.54831	866.87961	11414.55406	1543.87212	0.19273	54973.00000	860.00000	11289.00000
1552.31290	0.70358	0.19789	55811.51925	888.84465	11757.27851	1550.06249	0.19652	55614.00000	887.00000	11642.00000
1558.50726	0.69546	0.20162	56431.29012	888.46797	12087.25290	1556.25286	0.20026	56172.00000	885.00000	11957.00000
1564.70161	0.68800	0.20512	57011.94896	890.80855	12402.02125	1562.44323	0.20390	56858.00000	895.00000	12306.00000
1570.89597	0.68104	0.20843	57413.89650	869.93991	12655.66600	1568.63360	0.20719	57231.00000	876.00000	12552.00000
1577.09032	0.67396	0.21186	57979.03512	879.44141	12976.28334	1574.82397	0.21063	57786.00000	871.00000	12859.00000
1583.28468	0.66743	0.21507	58450.11400	894.72676	13273.04612	1581.01434	0.21391	58279.00000	894.00000	13169.00000
1589.47903	0.66123	0.21816	58825.25008	895.18773	13532.94879	1587.20471	0.21704	58712.00000	892.00000	13441.00000
1595.67339	0.65533	0.22114	59146.72764	885.70009	13769.70413	1593.39508	0.22005	59009.00000	896.00000	13684.00000
1601.86774	0.64958	0.22409	59574.82387	893.37146	14043.27568	1599.58545	0.22300	59419.00000	877.00000	13932.00000
1608.06210	0.64426	0.22685	59920.72690	909.46488	14296.22296	1605.77582	0.22588	59809.00000	920.00000	14222.00000
1614.25645	0.63929	0.22946	60220.95853	887.30010	14502.26905	1611.96619	0.22847	60102.00000	882.00000	14412.00000
1620.45081	0.63464	0.23193	60438.83040	897.12192	14706.61034	1618.15656	0.23110	60391.00000	905.00000	14652.00000
1626.64516	0.63052	0.23414	60579.30309	884.35356	14861.51344	1624.34693	0.23328	60502.00000	878.00000	14787.00000
1632.83952	0.62635	0.23640	60848.95373	899.57786	15071.80820	1630.53730	0.23562	60754.00000	903.00000	15005.00000
1639.03387	0.62291	0.23828	60928.35809	870.27700	15180.80267	1636.72767	0.23760	60938.00000	879.00000	15149.00000
1645.22823	0.61964	0.24008	60778.06969	873.98452	15255.88048	1642.91804	0.23941	60849.00000	868.00000	15228.00000
1651.42258	0.61645	0.24185	59777.88214	914.49031	15150.42466	1649.10841	0.24120	60357.00000	896.00000	15238.00000
1657.61694	0.61424	0.24309	57642.70006	920.63108	14709.11881	1655.29878	0.24275	58452.00000	931.00000	14894.00000
1663.81129	0.61276	0.24392	56689.89176	898.36344	14507.07069	1661.48915	0.24355	56762.00000	897.00000	14503.00000
1670.00565	0.61080	0.24502	55553.85124	917.06266	14303.72966	1667.67952	0.24462	56404.00000	914.00000	14488.00000
1676.20000	0.60955	0.24573	52318.47966	879.24303	13519.73123	1673.86989	0.24553	53497.00000	901.00000	13815.00000
0.00000	0.00000	0.00000	0.00000	0.00000	0.00000	1680.06026	0.24606	50136.00000	860.00000	12985.00000
0.00000	0.00000	0.00000	0.00000	0.00000	0.00000	1686.25063	0.24687	46019.00000	923.00000	12056.00000
0.00000	0.00000	0.00000	0.00000	0.00000	0.00000	1692.44100	0.24687	46019.00000	923.00000	12056.00000
