'File 苹果_2_2016一月28_1124.xls
'Part ID 苹果_2
'Scan Created 2016/1/28 11:24:17
'Instrument S1-00205
'Version 1.5.7
'Integration Time 10100 s
'Number of Scans 50
'Units Absorbance
'Thermistor 48.72
Wavelength	Absorbance	Normalized	100%	dark	Raw 1	Native Wvl	Native Norm	Native 100%	Native dark	Native 1
908.10000	0.40974	0.38928	3595.82598	881.87120	1937.08956	906.26400	0.37874	3684.00000	880.00000	1942.00000
914.29435	0.37378	0.42288	3338.07467	866.26472	1911.94534	912.45437	0.41337	3404.00000	876.00000	1921.00000
920.48871	0.34099	0.45605	3265.72768	878.51909	1967.17290	918.64474	0.44556	3257.00000	860.00000	1928.00000
926.68306	0.31042	0.48931	3334.01990	918.74175	2100.46151	924.83511	0.48042	3324.00000	924.00000	2077.00000
932.87742	0.28716	0.51622	3389.36197	864.93184	2168.20844	931.02548	0.50806	3355.00000	875.00000	2135.00000
939.07177	0.26678	0.54103	3619.59224	884.95115	2364.50150	937.21585	0.53453	3537.00000	873.00000	2297.00000
945.26613	0.25698	0.55338	3856.44440	889.93616	2531.45869	943.40622	0.55134	3802.00000	900.00000	2500.00000
951.46048	0.25834	0.55164	4005.12223	859.91735	2595.03855	949.59659	0.55329	3955.00000	859.00000	2572.00000
957.65484	0.26679	0.54102	4215.51392	893.73656	2690.70251	955.78696	0.54490	4148.00000	885.00000	2663.00000
963.84919	0.27391	0.53221	4374.23623	878.43417	2739.05538	961.97733	0.53345	4344.00000	891.00000	2733.00000
970.04355	0.27272	0.53368	4523.41127	896.06510	2831.92858	968.16770	0.53294	4453.00000	871.00000	2780.00000
976.23790	0.27293	0.53342	4726.50938	925.04592	2952.70856	974.35807	0.53415	4693.00000	945.00000	2947.00000
982.43226	0.27287	0.53349	4835.26800	856.06452	2979.06533	980.54844	0.53236	4778.00000	854.00000	2943.00000
988.62661	0.26809	0.53940	5079.18703	905.14928	3156.55711	986.73881	0.53794	5013.00000	901.00000	3113.00000
994.82097	0.26589	0.54214	5288.13901	870.37131	3265.46379	992.92918	0.54141	5216.00000	881.00000	3228.00000
1001.01532	0.26323	0.54547	5547.24444	876.96250	3424.37174	999.11955	0.54421	5470.00000	867.00000	3372.00000
1007.20968	0.25837	0.55160	5821.73207	889.84005	3610.40183	1005.30992	0.54935	5729.00000	896.00000	3551.00000
1013.40403	0.24897	0.56367	6108.36987	875.33513	3824.93953	1011.50029	0.55900	6031.00000	870.00000	3755.00000
1019.59839	0.23702	0.57940	6349.51155	919.49996	4065.72622	1017.69066	0.57508	6269.00000	908.00000	3991.00000
1025.79274	0.22872	0.59059	6610.09178	908.88037	4275.88530	1023.88103	0.58736	6536.00000	921.00000	4219.00000
1031.98710	0.22070	0.60159	6863.27600	885.10537	4481.59155	1030.07140	0.59800	6776.00000	883.00000	4407.00000
1038.18145	0.21273	0.61274	7137.95533	879.30949	4714.16718	1036.26177	0.60956	7062.00000	892.00000	4653.00000
1044.37581	0.20642	0.62170	7415.45215	852.78191	4932.87296	1042.45214	0.61903	7313.00000	848.00000	4850.00000
1050.57016	0.20120	0.62922	7763.75520	889.74850	5214.96505	1048.64251	0.62714	7664.00000	884.00000	5136.00000
1056.76452	0.19736	0.63481	8043.98752	873.54577	5425.45100	1054.83288	0.63318	7958.00000	881.00000	5362.00000
1062.95887	0.19463	0.63881	8346.47029	875.55305	5648.01286	1061.02325	0.63784	8246.00000	868.00000	5574.00000
1069.15323	0.19397	0.63978	8651.05608	883.28349	5852.92909	1067.21362	0.63982	8564.00000	890.00000	5800.00000
1075.34758	0.19457	0.63889	8931.01237	859.29405	6016.30500	1073.40399	0.63917	8836.00000	860.00000	5958.00000
1081.54194	0.19609	0.63666	9243.78719	871.40916	6201.74909	1079.59436	0.63776	9149.00000	870.00000	6150.00000
1087.73629	0.19942	0.63181	9580.78777	901.76500	6385.25112	1085.78473	0.63341	9462.00000	883.00000	6317.00000
1093.93065	0.20352	0.62587	9940.76391	922.65990	6566.79352	1091.97510	0.62797	9841.00000	933.00000	6527.00000
1100.12500	0.20932	0.61757	10254.38783	869.25749	6665.16355	1098.16547	0.62044	10144.00000	878.00000	6627.00000
1106.31935	0.21572	0.60853	10641.04469	875.00467	6817.94318	1104.35584	0.61124	10519.00000	873.00000	6769.00000
1112.51371	0.22141	0.60061	11015.80766	872.41348	6964.66891	1110.54621	0.60311	10897.00000	874.00000	6919.00000
1118.70806	0.22855	0.59082	11401.60672	872.77123	7093.36201	1116.73658	0.59443	11276.00000	871.00000	7056.00000
1124.90242	0.23968	0.57586	11814.30888	885.70510	7179.23115	1122.92695	0.58126	11680.00000	881.00000	7158.00000
1131.09677	0.25743	0.55280	12236.17715	886.26842	7160.29943	1129.11732	0.56140	12103.00000	890.00000	7185.00000
1137.29113	0.28342	0.52069	12606.57558	854.95675	6974.13914	1135.30769	0.53151	12498.00000	867.00000	7049.00000
1143.48548	0.31180	0.48775	12995.31207	851.62722	6774.42012	1141.49806	0.49783	12851.00000	843.00000	6821.00000
1149.67984	0.33477	0.46263	13491.13514	894.93569	6722.52159	1147.68843	0.46944	13335.00000	884.00000	6729.00000
1155.87419	0.34971	0.44699	13953.07917	885.15852	6726.20095	1153.87880	0.45139	13805.00000	896.00000	6723.00000
1162.06855	0.35977	0.43675	14446.12872	862.12568	6794.93641	1160.06917	0.43944	14279.00000	862.00000	6758.00000
1168.26290	0.36515	0.43137	14959.02414	891.75197	6960.03498	1166.25954	0.43272	14800.00000	881.00000	6904.00000
1174.45726	0.36923	0.42733	15420.71473	898.79570	7104.40927	1172.44991	0.42881	15273.00000	903.00000	7065.00000
1180.65161	0.37391	0.42276	15876.41905	861.08105	7209.00133	1178.64028	0.42409	15728.00000	875.00000	7174.00000
1186.84597	0.37719	0.41958	16371.22020	852.06070	7363.57477	1184.83065	0.42051	16201.00000	846.00000	7303.00000
1193.04032	0.37990	0.41697	16894.18264	880.38932	7557.55954	1191.02102	0.41779	16730.00000	875.00000	7499.00000
1199.23468	0.38139	0.41554	17400.55626	883.09277	7746.79803	1197.21139	0.41573	17229.00000	882.00000	7678.00000
1205.42903	0.38081	0.41609	17922.85290	876.52702	7969.37468	1203.40176	0.41580	17758.00000	882.00000	7899.00000
1211.62339	0.37895	0.41788	18412.23826	867.41129	8199.06757	1209.59213	0.41711	18250.00000	866.00000	8117.00000
1217.81774	0.37540	0.42130	18946.64823	877.09601	8489.89766	1215.78250	0.42003	18763.00000	876.00000	8389.00000
1224.01210	0.37098	0.42561	19522.38589	879.59709	8814.25051	1221.97287	0.42418	19334.00000	877.00000	8706.00000
1230.20645	0.36708	0.42946	20046.82356	877.27220	9109.70693	1228.16324	0.42832	19884.00000	882.00000	9021.00000
1236.40081	0.36380	0.43272	20578.92550	894.33634	9412.27421	1234.35361	0.43160	20387.00000	878.00000	9298.00000
1242.59516	0.36070	0.43581	21116.97255	904.50586	9713.27143	1240.54398	0.43491	20962.00000	919.00000	9636.00000
1248.78952	0.35862	0.43791	21555.61107	852.78714	9918.74509	1246.73435	0.43727	21399.00000	858.00000	9840.00000
1254.98387	0.35680	0.43974	22112.97196	897.03001	10226.57123	1252.92472	0.43914	21917.00000	878.00000	10117.00000
1261.17823	0.35560	0.44096	22669.33634	902.45329	10500.87751	1259.11509	0.44072	22498.00000	915.00000	10427.00000
1267.37258	0.35597	0.44058	23144.86310	840.51764	10667.34249	1265.30546	0.44089	22985.00000	857.00000	10613.00000
1273.56694	0.35716	0.43938	23720.39347	860.92978	10904.86177	1271.49583	0.43975	23506.00000	841.00000	10808.00000
1279.76129	0.35906	0.43746	24372.77955	913.59084	11176.11507	1277.68620	0.43835	24166.00000	906.00000	11102.00000
1285.95565	0.36314	0.43337	24945.52650	893.87771	11317.19124	1283.87657	0.43495	24754.00000	903.00000	11277.00000
1292.15000	0.36880	0.42776	25532.41484	877.59600	11424.03809	1290.06694	0.42978	25332.00000	880.00000	11389.00000
1298.34435	0.37583	0.42089	26175.67024	884.75253	11529.41448	1296.25731	0.42337	25949.00000	881.00000	11494.00000
1304.53871	0.38493	0.41216	26805.92834	868.00311	11558.61482	1302.44769	0.41537	26610.00000	881.00000	11568.00000
1310.73306	0.39606	0.40174	27432.03993	867.23944	11539.29604	1308.63806	0.40534	27196.00000	853.00000	11531.00000
1316.92742	0.40857	0.39033	28161.82657	892.73544	11536.55970	1314.82843	0.39436	27925.00000	899.00000	11557.00000
1323.12177	0.42287	0.37768	28842.74169	862.95220	11430.38073	1321.01880	0.38206	28606.00000	864.00000	11463.00000
1329.31613	0.43807	0.36469	29519.54369	871.94640	11319.61577	1327.20917	0.36910	29300.00000	874.00000	11366.00000
1335.51048	0.45315	0.35225	30183.25265	863.66515	11191.43661	1333.39954	0.35637	29944.00000	862.00000	11226.00000
1341.70484	0.46726	0.34099	30926.51890	893.32929	11134.19336	1339.58991	0.34469	30673.00000	881.00000	11150.00000
1347.89919	0.48020	0.33098	31587.63481	894.88004	11053.64108	1345.78028	0.33426	31380.00000	904.00000	11091.00000
1354.09355	0.49217	0.32198	32227.78710	859.30420	10959.26533	1351.97065	0.32499	31988.00000	867.00000	10981.00000
1360.28790	0.50416	0.31321	32929.95072	867.11433	10909.82777	1358.16102	0.31627	32704.00000	861.00000	10932.00000
1366.48226	0.51868	0.30291	33569.06337	866.55753	10772.45157	1364.35139	0.30679	33341.00000	873.00000	10834.00000
1372.67661	0.53884	0.28917	34261.83351	843.87902	10507.40692	1370.54176	0.29434	34024.00000	848.00000	10613.00000
1378.87097	0.56671	0.27120	34838.67465	870.52277	10082.68471	1376.73213	0.27794	34668.00000	855.00000	10253.00000
1385.06532	0.60365	0.24909	35121.03064	877.10458	9406.99860	1382.92250	0.25709	35059.00000	888.00000	9673.00000
1391.25968	0.64639	0.22574	35289.43299	872.38486	8641.53569	1389.11287	0.23370	35214.00000	858.00000	8887.00000
1397.45403	0.68968	0.20433	35460.60298	899.47130	7961.45449	1395.30324	0.21147	35427.00000	906.00000	8206.00000
1403.64839	0.72949	0.18643	35666.10671	869.36576	7356.33582	1401.49361	0.19213	35545.00000	870.00000	7532.00000
1409.84274	0.76257	0.17276	36323.03255	883.09719	7005.46156	1407.68398	0.17713	36050.00000	883.00000	7112.00000
1416.03710	0.78888	0.16260	37284.68636	884.03189	6802.85594	1413.87435	0.16573	36926.00000	879.00000	6853.00000
1422.23145	0.80849	0.15542	38329.42739	892.53935	6710.98506	1420.06472	0.15771	37970.00000	895.00000	6742.00000
1428.42581	0.82341	0.15017	39434.74114	878.71439	6668.69339	1426.25509	0.15178	39022.00000	881.00000	6670.00000
1434.62016	0.83384	0.14661	40575.07439	880.06733	6699.76606	1432.44546	0.14773	40203.00000	880.00000	6689.00000
1440.81452	0.84078	0.14429	41493.68414	879.47622	6739.52812	1438.63583	0.14494	41184.00000	879.00000	6721.00000
1447.00887	0.84410	0.14319	42510.04768	905.41306	6862.62610	1444.82620	0.14347	42113.00000	891.00000	6805.00000
1453.20323	0.84618	0.14250	43543.72896	892.86717	6970.62183	1451.01657	0.14276	43229.00000	914.00000	6955.00000
1459.39758	0.84670	0.14233	44405.02794	864.61268	7061.85121	1457.20694	0.14222	44070.00000	855.00000	7001.00000
1465.59194	0.84360	0.14335	45481.34063	906.97918	7296.78483	1463.39731	0.14293	45094.00000	903.00000	7219.00000
1471.78629	0.83887	0.14492	46480.51435	890.87025	7497.79747	1469.58768	0.14429	46150.00000	894.00000	7424.00000
1477.98065	0.83214	0.14718	47320.91755	868.50781	7705.50248	1475.77805	0.14630	47029.00000	883.00000	7634.00000
1484.17500	0.82341	0.15017	48225.65661	857.63729	7971.13625	1481.96842	0.14903	47881.00000	849.00000	7858.00000
1490.36935	0.81362	0.15359	49092.30051	893.89890	8296.80143	1488.15879	0.15237	48824.00000	887.00000	8191.00000
1496.56371	0.80365	0.15716	49778.04514	887.35808	8571.28519	1494.34916	0.15585	49521.00000	891.00000	8470.00000
1502.75806	0.79320	0.16099	50469.48096	863.36996	8849.37932	1500.53953	0.15960	50241.00000	875.00000	8754.00000
1508.95242	0.78244	0.16503	51158.04064	897.54966	9192.07470	1506.72990	0.16354	50884.00000	867.00000	9047.00000
1515.14677	0.77211	0.16900	51878.91086	902.58342	9517.51884	1512.92027	0.16764	51650.00000	933.00000	9435.00000
1521.34113	0.76206	0.17296	52577.57434	850.45197	9797.22726	1519.11064	0.17145	52288.00000	838.00000	9659.00000
1527.53548	0.75167	0.17715	53324.26188	911.75147	10196.28906	1525.30101	0.17570	53098.00000	907.00000	10077.00000
1533.72984	0.74230	0.18101	53919.19306	885.74627	10485.47706	1531.49138	0.17960	53680.00000	890.00000	10371.00000
1539.92419	0.73318	0.18485	54593.00479	874.24673	10804.19483	1537.68175	0.18350	54367.00000	884.00000	10698.00000
1546.11855	0.72453	0.18857	55208.54831	866.87961	11114.04647	1543.87212	0.18720	54973.00000	860.00000	10990.00000
1552.31290	0.71594	0.19234	55811.51925	888.84465	11452.35404	1550.06249	0.19098	55614.00000	887.00000	11339.00000
1558.50726	0.70771	0.19601	56431.29012	888.46797	11775.85376	1556.25286	0.19468	56172.00000	885.00000	11648.00000
1564.70161	0.70011	0.19948	57011.94896	890.80855	12085.52980	1562.44323	0.19827	56858.00000	895.00000	11991.00000
1570.89597	0.69302	0.20276	57413.89650	869.93991	12334.73970	1568.63360	0.20153	57231.00000	876.00000	12233.00000
1577.09032	0.68578	0.20617	57979.03512	879.44141	12651.40829	1574.82397	0.20494	57786.00000	871.00000	12535.00000
1583.28468	0.67906	0.20938	58450.11400	894.72676	12945.74620	1581.01434	0.20823	58279.00000	894.00000	12843.00000
1589.47903	0.67276	0.21244	58825.25008	895.18773	13201.81174	1587.20471	0.21133	58712.00000	892.00000	13111.00000
1595.67339	0.66667	0.21544	59146.72764	885.70009	13437.70203	1593.39508	0.21434	59009.00000	896.00000	13352.00000
1601.86774	0.66079	0.21838	59574.82387	893.37146	13708.21332	1599.58545	0.21731	59419.00000	877.00000	13599.00000
1608.06210	0.65544	0.22109	59920.72690	909.46488	13956.14314	1605.77582	0.22013	59809.00000	920.00000	13883.00000
1614.25645	0.65034	0.22370	60220.95853	887.30010	14160.17382	1611.96619	0.22271	60102.00000	882.00000	14071.00000
1620.45081	0.64561	0.22615	60438.83040	897.12192	14362.31460	1618.15656	0.22531	60391.00000	905.00000	14308.00000
1626.64516	0.64134	0.22838	60579.30309	884.35356	14517.49055	1624.34693	0.22751	60502.00000	878.00000	14443.00000
1632.83952	0.63709	0.23063	60848.95373	899.57786	14725.61477	1630.53730	0.22985	60754.00000	903.00000	14660.00000
1639.03387	0.63361	0.23248	60928.35809	870.27700	14832.56417	1636.72767	0.23181	60938.00000	879.00000	14801.00000
1645.22823	0.63028	0.23427	60778.06969	873.98452	14907.92688	1642.91804	0.23361	60849.00000	868.00000	14880.00000
1651.42258	0.62694	0.23608	59777.88214	914.49031	14810.67234	1649.10841	0.23540	60357.00000	896.00000	14893.00000
1657.61694	0.62449	0.23742	57642.70006	920.63108	14387.39759	1655.29878	0.23704	58452.00000	931.00000	14566.00000
1663.81129	0.62297	0.23825	56689.89176	898.36344	14190.80376	1661.48915	0.23789	56762.00000	897.00000	14187.00000
1670.00565	0.62102	0.23932	55553.85124	917.06266	13992.48952	1667.67952	0.23893	56404.00000	914.00000	14172.00000
1676.20000	0.61970	0.24005	52318.47966	879.24303	13227.54100	1673.86989	0.23985	53497.00000	901.00000	13516.00000
0.00000	0.00000	0.00000	0.00000	0.00000	0.00000	1680.06026	0.24038	50136.00000	860.00000	12705.00000
0.00000	0.00000	0.00000	0.00000	0.00000	0.00000	1686.25063	0.24117	46019.00000	923.00000	11799.00000
0.00000	0.00000	0.00000	0.00000	0.00000	0.00000	1692.44100	0.24117	46019.00000	923.00000	11799.00000
