'File Þ¹ÒÂ²Ý²è_2_2016Ò»ÔÂ28_1129.xls
'Part ID Þ¹ÒÂ²Ý²è_2
'Scan Created 2016/1/28 11:29:21
'Instrument S1-00205
'Version 1.5.7
'Integration Time 10100 µs
'Number of Scans 50
'Units Absorbance
'Thermistor 49.04
Wavelength	Absorbance	Normalized	100%	dark	Raw 1	Native Wvl	Native Norm	Native 100%	Native dark	Native 1
908.10000	0.34516	0.45169	3595.82598	881.87120	2107.70700	906.26400	0.45114	3684.00000	880.00000	2145.00000
914.29435	0.34181	0.45519	3338.07467	866.26472	1991.37757	912.45437	0.45372	3404.00000	876.00000	2023.00000
920.48871	0.33381	0.46365	3265.72768	878.51909	1985.40537	918.64474	0.46058	3257.00000	860.00000	1964.00000
926.68306	0.32764	0.47029	3334.01990	918.74175	2054.54289	924.83511	0.46958	3324.00000	924.00000	2051.00000
932.87742	0.32621	0.47183	3389.36197	864.93184	2056.10427	931.02548	0.47056	3355.00000	875.00000	2042.00000
939.07177	0.31929	0.47941	3619.59224	884.95115	2195.98738	937.21585	0.47710	3537.00000	873.00000	2144.00000
945.26613	0.31478	0.48442	3856.44440	889.93616	2326.90637	943.40622	0.48346	3802.00000	900.00000	2303.00000
951.46048	0.31165	0.48792	4005.12223	859.91735	2394.59049	949.59659	0.48643	3955.00000	859.00000	2365.00000
957.65484	0.30765	0.49244	4215.51392	893.73656	2529.46474	955.78696	0.49157	4148.00000	885.00000	2489.00000
963.84919	0.30613	0.49416	4374.23623	878.43417	2605.89859	961.97733	0.49348	4344.00000	891.00000	2595.00000
970.04355	0.30223	0.49862	4523.41127	896.06510	2704.85061	968.16770	0.49693	4453.00000	871.00000	2651.00000
976.23790	0.30008	0.50109	4726.50938	925.04592	2829.78391	974.35807	0.50133	4693.00000	945.00000	2824.00000
982.43226	0.30035	0.50078	4835.26800	856.06452	2848.91347	980.54844	0.50000	4778.00000	854.00000	2816.00000
988.62661	0.29708	0.50457	5079.18703	905.14928	3011.14257	986.73881	0.50389	5013.00000	901.00000	2973.00000
994.82097	0.29688	0.50480	5288.13901	870.37131	3100.48902	992.92918	0.50473	5216.00000	881.00000	3069.00000
1001.01532	0.29574	0.50613	5547.24444	876.96250	3240.70349	999.11955	0.50554	5470.00000	867.00000	3194.00000
1007.20968	0.29411	0.50803	5821.73207	889.84005	3395.40071	1005.30992	0.50755	5729.00000	896.00000	3349.00000
1013.40403	0.29204	0.51045	6108.36987	875.33513	3546.54809	1011.50029	0.50940	6031.00000	870.00000	3499.00000
1019.59839	0.28864	0.51446	6349.51155	919.49996	3713.09186	1017.69066	0.51334	6269.00000	908.00000	3660.00000
1025.79274	0.28701	0.51640	6610.09178	908.88037	3852.95177	1023.88103	0.51612	6536.00000	921.00000	3819.00000
1031.98710	0.28616	0.51742	6863.27600	885.10537	3978.36359	1030.07140	0.51688	6776.00000	883.00000	3929.00000
1038.18145	0.28440	0.51952	7137.95533	879.30949	4130.74297	1036.26177	0.51896	7062.00000	892.00000	4094.00000
1044.37581	0.28290	0.52131	7415.45215	852.78191	4274.02623	1042.45214	0.52065	7313.00000	848.00000	4214.00000
1050.57016	0.28116	0.52341	7763.75520	889.74850	4487.60983	1048.64251	0.52286	7664.00000	884.00000	4429.00000
1056.76452	0.27997	0.52484	8043.98752	873.54577	4636.87424	1054.83288	0.52437	7958.00000	881.00000	4592.00000
1062.95887	0.27850	0.52662	8346.47029	875.55305	4809.93152	1061.02325	0.52602	8246.00000	868.00000	4749.00000
1069.15323	0.27731	0.52806	8651.05608	883.28349	4985.11239	1067.21362	0.52776	8564.00000	890.00000	4940.00000
1075.34758	0.27635	0.52923	8931.01237	859.29405	5131.15521	1073.40399	0.52871	8836.00000	860.00000	5077.00000
1081.54194	0.27499	0.53090	9243.78719	871.40916	5316.23280	1079.59436	0.53050	9149.00000	870.00000	5262.00000
1087.73629	0.27376	0.53241	9580.78777	901.76500	5522.59984	1085.78473	0.53176	9462.00000	883.00000	5445.00000
1093.93065	0.27260	0.53383	9940.76391	922.65990	5736.68771	1091.97510	0.53368	9841.00000	933.00000	5687.00000
1100.12500	0.27287	0.53350	10254.38783	869.25749	5876.24630	1098.16547	0.53356	10144.00000	878.00000	5822.00000
1106.31935	0.27254	0.53390	10641.04469	875.00467	6089.08128	1104.35584	0.53369	10519.00000	873.00000	6021.00000
1112.51371	0.27204	0.53451	11015.80766	872.41348	6294.18144	1110.54621	0.53437	10897.00000	874.00000	6230.00000
1118.70806	0.27209	0.53445	11401.60672	872.77123	6499.85792	1116.73658	0.53455	11276.00000	871.00000	6433.00000
1124.90242	0.27229	0.53421	11814.30888	885.70510	6723.88176	1122.92695	0.53422	11680.00000	881.00000	6650.00000
1131.09677	0.27257	0.53386	12236.17715	886.26842	6945.49900	1129.11732	0.53411	12103.00000	890.00000	6879.00000
1137.29113	0.27368	0.53250	12606.57558	854.95675	7112.73549	1135.30769	0.53297	12498.00000	867.00000	7066.00000
1143.48548	0.27476	0.53118	12995.31207	851.62722	7302.06836	1141.49806	0.53156	12851.00000	843.00000	7226.00000
1149.67984	0.27574	0.52998	13491.13514	894.93569	7570.74562	1147.68843	0.53040	13335.00000	884.00000	7488.00000
1155.87419	0.27738	0.52798	13953.07917	885.15852	7784.69376	1153.87880	0.52878	13805.00000	896.00000	7722.00000
1162.06855	0.27942	0.52551	14446.12872	862.12568	8000.68695	1160.06917	0.52620	14279.00000	862.00000	7922.00000
1168.26290	0.28060	0.52408	14959.02414	891.75197	8264.17799	1166.25954	0.52446	14800.00000	881.00000	8181.00000
1174.45726	0.28187	0.52255	15420.71473	898.79570	8487.14444	1172.44991	0.52317	15273.00000	903.00000	8421.00000
1180.65161	0.28355	0.52054	15876.41905	861.08105	8677.11422	1178.64028	0.52111	15728.00000	875.00000	8615.00000
1186.84597	0.28421	0.51974	16371.22020	852.06070	8918.08117	1184.83065	0.51983	16201.00000	846.00000	8828.00000
1193.04032	0.28434	0.51959	16894.18264	880.38932	9200.90722	1191.02102	0.51971	16730.00000	875.00000	9115.00000
1199.23468	0.28434	0.51959	17400.55626	883.09277	9465.45323	1197.21139	0.51942	17229.00000	882.00000	9373.00000
1205.42903	0.28350	0.52060	17922.85290	876.52702	9750.75651	1203.40176	0.52027	17758.00000	882.00000	9662.00000
1211.62339	0.28236	0.52196	18412.23826	867.41129	10025.17879	1209.59213	0.52140	18250.00000	866.00000	9930.00000
1217.81774	0.28043	0.52429	18946.64823	877.09601	10350.78367	1215.78250	0.52345	18763.00000	876.00000	10239.00000
1224.01210	0.27811	0.52709	19522.38589	879.59709	10706.09568	1221.97287	0.52614	19334.00000	877.00000	10588.00000
1230.20645	0.27604	0.52962	20046.82356	877.27220	11029.81544	1228.16324	0.52889	19884.00000	882.00000	10932.00000
1236.40081	0.27431	0.53173	20578.92550	894.33634	11361.28973	1234.35361	0.53099	20387.00000	878.00000	11237.00000
1242.59516	0.27254	0.53390	21116.97255	904.50586	11695.90927	1240.54398	0.53325	20962.00000	919.00000	11607.00000
1248.78952	0.27137	0.53533	21555.61107	852.78714	11935.69615	1246.73435	0.53493	21399.00000	858.00000	11846.00000
1254.98387	0.27023	0.53675	22112.97196	897.03001	12284.80741	1252.92472	0.53619	21917.00000	878.00000	12159.00000
1261.17823	0.26909	0.53816	22669.33634	902.45329	12616.49151	1259.11509	0.53783	22498.00000	915.00000	12523.00000
1267.37258	0.26869	0.53865	23144.86310	840.51764	12854.72722	1265.30546	0.53850	22985.00000	857.00000	12773.00000
1273.56694	0.26784	0.53970	23720.39347	860.92978	13198.32651	1271.49583	0.53920	23506.00000	841.00000	13062.00000
1279.76129	0.26648	0.54140	24372.77955	913.59084	13614.36726	1277.68620	0.54089	24166.00000	906.00000	13487.00000
1285.95565	0.26558	0.54253	24945.52650	893.87771	13942.56728	1283.87657	0.54220	24754.00000	903.00000	13835.00000
1292.15000	0.26489	0.54339	25532.41484	877.59600	14274.78842	1290.06694	0.54310	25332.00000	880.00000	14160.00000
1298.34435	0.26413	0.54434	26175.67024	884.75253	14651.60641	1296.25731	0.54400	25949.00000	881.00000	14518.00000
1304.53871	0.26376	0.54480	26805.92834	868.00311	14998.88652	1302.44769	0.54479	26610.00000	881.00000	14898.00000
1310.73306	0.26384	0.54470	27432.03993	867.23944	15337.11309	1308.63806	0.54466	27196.00000	853.00000	15201.00000
1316.92742	0.26397	0.54454	28161.82657	892.73544	15741.88643	1314.82843	0.54473	27925.00000	899.00000	15621.00000
1323.12177	0.26495	0.54331	28842.74169	862.95220	16064.61923	1321.01880	0.54380	28606.00000	864.00000	15950.00000
1329.31613	0.26641	0.54148	29519.54369	871.94640	16384.17368	1327.20917	0.54218	29300.00000	874.00000	16286.00000
1335.51048	0.26847	0.53892	30183.25265	863.66515	16664.71008	1333.39954	0.53989	29944.00000	862.00000	16563.00000
1341.70484	0.27121	0.53554	30926.51890	893.32929	16977.16560	1339.58991	0.53679	30673.00000	881.00000	16873.00000
1347.89919	0.27458	0.53140	31587.63481	894.88004	17204.93659	1345.78028	0.53288	31380.00000	904.00000	17144.00000
1354.09355	0.27813	0.52707	32227.78710	859.30420	17392.76734	1351.97065	0.52852	31988.00000	867.00000	17315.00000
1360.28790	0.28146	0.52305	32929.95072	867.11433	17637.60323	1358.16102	0.52442	32704.00000	861.00000	17560.00000
1366.48226	0.28501	0.51878	33569.06337	866.55753	17832.03053	1364.35139	0.52033	33341.00000	873.00000	17767.00000
1372.67661	0.28904	0.51400	34261.83351	843.87902	18020.71353	1370.54176	0.51567	34024.00000	848.00000	17956.00000
1378.87097	0.29330	0.50898	34838.67465	870.52277	18159.57442	1376.73213	0.51075	34668.00000	855.00000	18125.00000
1385.06532	0.29807	0.50342	35121.03064	877.10458	18116.06673	1382.92250	0.50543	35059.00000	888.00000	18159.00000
1391.25968	0.30352	0.49714	35289.43299	872.38486	17982.38804	1389.11287	0.49939	35214.00000	858.00000	18015.00000
1397.45403	0.31063	0.48907	35460.60298	899.47130	17802.40376	1395.30324	0.49225	35427.00000	906.00000	17899.00000
1403.64839	0.32077	0.47778	35666.10671	869.36576	17494.51490	1401.49361	0.48202	35545.00000	870.00000	17584.00000
1409.84274	0.33348	0.46400	36323.03255	883.09719	17327.20705	1407.68398	0.46905	36050.00000	883.00000	17378.00000
1416.03710	0.34747	0.44929	37284.68636	884.03189	17238.64024	1413.87435	0.45435	36926.00000	879.00000	17257.00000
1422.23145	0.36073	0.43578	38329.42739	892.53935	17206.89489	1420.06472	0.44032	37970.00000	895.00000	17220.00000
1428.42581	0.37230	0.42433	39434.74114	878.71439	17238.87292	1426.25509	0.42804	39022.00000	881.00000	17207.00000
1434.62016	0.38156	0.41537	40575.07439	880.06733	17368.25060	1432.44546	0.41825	40203.00000	880.00000	17327.00000
1440.81452	0.38836	0.40892	41493.68414	879.47622	17487.59901	1438.63583	0.41087	41184.00000	879.00000	17439.00000
1447.00887	0.39258	0.40497	42510.04768	905.41306	17753.86972	1444.82620	0.40614	42113.00000	891.00000	17633.00000
1453.20323	0.39554	0.40222	43543.72896	892.86717	18047.87695	1451.01657	0.40314	43229.00000	914.00000	17973.00000
1459.39758	0.39754	0.40036	44405.02794	864.61268	18296.70971	1457.20694	0.40083	44070.00000	855.00000	18177.00000
1465.59194	0.39829	0.39968	45481.34063	906.97918	18722.43007	1463.39731	0.39988	45094.00000	903.00000	18574.00000
1471.78629	0.39858	0.39941	46480.51435	890.87025	19099.83839	1469.58768	0.39944	46150.00000	894.00000	18971.00000
1477.98065	0.39834	0.39963	47320.91755	868.50781	19432.34314	1475.77805	0.39951	47029.00000	883.00000	19319.00000
1484.17500	0.39764	0.40028	48225.65661	857.63729	19818.01589	1481.96842	0.39998	47881.00000	849.00000	19661.00000
1490.36935	0.39653	0.40130	49092.30051	893.89890	20235.80461	1488.15879	0.40092	48824.00000	887.00000	20106.00000
1496.56371	0.39528	0.40246	49778.04514	887.35808	20563.82494	1494.34916	0.40202	49521.00000	891.00000	20441.00000
1502.75806	0.39359	0.40403	50469.48096	863.36996	20905.48115	1500.53953	0.40340	50241.00000	875.00000	20789.00000
1508.95242	0.39130	0.40616	51158.04064	897.54966	21311.41804	1506.72990	0.40534	50884.00000	867.00000	21141.00000
1515.14677	0.38906	0.40826	51878.91086	902.58342	21714.06444	1512.92027	0.40758	51650.00000	933.00000	21604.00000
1521.34113	0.38678	0.41041	52577.57434	850.45197	22079.85536	1519.11064	0.40952	52288.00000	838.00000	21908.00000
1527.53548	0.38435	0.41272	53324.26188	911.75147	22543.27247	1525.30101	0.41201	53098.00000	907.00000	22410.00000
1533.72984	0.38260	0.41438	53919.19306	885.74627	22861.90262	1531.49138	0.41377	53680.00000	890.00000	22733.00000
1539.92419	0.38105	0.41587	54593.00479	874.24673	23214.06226	1537.68175	0.41540	54367.00000	884.00000	23101.00000
1546.11855	0.37988	0.41699	55208.54831	866.87961	23526.81328	1543.87212	0.41657	54973.00000	860.00000	23402.00000
1552.31290	0.37870	0.41812	55811.51925	888.84465	23852.94805	1550.06249	0.41773	55614.00000	887.00000	23748.00000
1558.50726	0.37766	0.41912	56431.29012	888.46797	24167.62312	1556.25286	0.41876	56172.00000	885.00000	24037.00000
1564.70161	0.37694	0.41981	57011.94896	890.80855	24451.14319	1562.44323	0.41963	56858.00000	895.00000	24379.00000
1570.89597	0.37641	0.42033	57413.89650	869.93991	24637.32535	1568.63360	0.42009	57231.00000	876.00000	24550.00000
1577.09032	0.37548	0.42123	57979.03512	879.44141	24931.52411	1574.82397	0.42089	57786.00000	871.00000	24826.00000
1583.28468	0.37457	0.42211	58450.11400	894.72676	25189.61614	1581.01434	0.42180	58279.00000	894.00000	25099.00000
1589.47903	0.37347	0.42318	58825.25008	895.18773	25410.15355	1587.20471	0.42273	58712.00000	892.00000	25334.00000
1595.67339	0.37189	0.42473	59146.72764	885.70009	25630.73795	1593.39508	0.42412	59009.00000	896.00000	25543.00000
1601.86774	0.36994	0.42664	59574.82387	893.37146	25929.19893	1599.58545	0.42588	59419.00000	877.00000	25809.00000
1608.06210	0.36778	0.42876	59920.72690	909.46488	26211.32621	1605.77582	0.42799	59809.00000	920.00000	26124.00000
1614.25645	0.36552	0.43100	60220.95853	887.30010	26460.04289	1611.96619	0.43012	60102.00000	882.00000	26354.00000
1620.45081	0.36341	0.43310	60438.83040	897.12192	26684.68856	1618.15656	0.43242	60391.00000	905.00000	26628.00000
1626.64516	0.36167	0.43484	60579.30309	884.35356	26842.22185	1624.34693	0.43415	60502.00000	878.00000	26764.00000
1632.83952	0.35990	0.43661	60848.95373	899.57786	27074.34486	1630.53730	0.43602	60754.00000	903.00000	26999.00000
1639.03387	0.35864	0.43788	60928.35809	870.27700	27168.50456	1636.72767	0.43745	60938.00000	879.00000	27152.00000
1645.22823	0.35762	0.43891	60778.06969	873.98452	27166.70601	1642.91804	0.43854	60849.00000	868.00000	27172.00000
1651.42258	0.35693	0.43961	59777.88214	914.49031	26791.52832	1649.10841	0.43943	60357.00000	896.00000	27025.00000
1657.61694	0.35718	0.43936	57642.70006	920.63108	25842.02732	1655.29878	0.43960	58452.00000	931.00000	26217.00000
1663.81129	0.35804	0.43850	56689.89176	898.36344	25362.47988	1661.48915	0.43879	56762.00000	897.00000	25410.00000
1670.00565	0.35864	0.43788	55553.85124	917.06266	24841.48865	1667.67952	0.43810	56404.00000	914.00000	25224.00000
1676.20000	0.35904	0.43748	52318.47966	879.24303	23383.09848	1673.86989	0.43758	53497.00000	901.00000	23916.00000
0.00000	0.00000	0.00000	0.00000	0.00000	0.00000	1680.06026	0.43766	50136.00000	860.00000	22426.00000
0.00000	0.00000	0.00000	0.00000	0.00000	0.00000	1686.25063	0.43878	46019.00000	923.00000	20710.00000
0.00000	0.00000	0.00000	0.00000	0.00000	0.00000	1692.44100	0.43878	46019.00000	923.00000	20710.00000
