'File Þ¹ÒÂ²Ý²è_5_2016Ò»ÔÂ28_1129.xls
'Part ID Þ¹ÒÂ²Ý²è_5
'Scan Created 2016/1/28 11:29:36
'Instrument S1-00205
'Version 1.5.7
'Integration Time 10100 µs
'Number of Scans 50
'Units Absorbance
'Thermistor 49.04
Wavelength	Absorbance	Normalized	100%	dark	Raw 1	Native Wvl	Native Norm	Native 100%	Native dark	Native 1
908.10000	0.34149	0.45552	3595.82598	881.87120	2117.91666	906.26400	0.45399	3684.00000	880.00000	2153.00000
914.29435	0.33795	0.45925	3338.07467	866.26472	2001.52284	912.45437	0.45847	3404.00000	876.00000	2035.00000
920.48871	0.33176	0.46584	3265.72768	878.51909	1990.59953	918.64474	0.46266	3257.00000	860.00000	1969.00000
926.68306	0.32383	0.47443	3334.01990	918.74175	2064.53130	924.83511	0.47333	3324.00000	924.00000	2060.00000
932.87742	0.32196	0.47647	3389.36197	864.93184	2067.84803	931.02548	0.47500	3355.00000	875.00000	2053.00000
939.07177	0.31513	0.48402	3619.59224	884.95115	2208.53074	937.21585	0.48198	3537.00000	873.00000	2157.00000
945.26613	0.31076	0.48892	3856.44440	889.93616	2340.32427	943.40622	0.48759	3802.00000	900.00000	2315.00000
951.46048	0.30695	0.49323	4005.12223	859.91735	2411.22554	949.59659	0.49193	3955.00000	859.00000	2382.00000
957.65484	0.30394	0.49666	4215.51392	893.73656	2543.51683	955.78696	0.49586	4148.00000	885.00000	2503.00000
963.84919	0.30146	0.49950	4374.23623	878.43417	2624.56208	961.97733	0.49841	4344.00000	891.00000	2612.00000
970.04355	0.29729	0.50433	4523.41127	896.06510	2725.54503	968.16770	0.50279	4453.00000	871.00000	2672.00000
976.23790	0.29627	0.50551	4726.50938	925.04592	2846.54038	974.35807	0.50614	4693.00000	945.00000	2842.00000
982.43226	0.29663	0.50509	4835.26800	856.06452	2866.08752	980.54844	0.50408	4778.00000	854.00000	2832.00000
988.62661	0.29258	0.50982	5079.18703	905.14928	3033.06700	986.73881	0.50900	5013.00000	901.00000	2994.00000
994.82097	0.29270	0.50968	5288.13901	870.37131	3122.04292	992.92918	0.50980	5216.00000	881.00000	3091.00000
1001.01532	0.29182	0.51071	5547.24444	876.96250	3262.14590	999.11955	0.51010	5470.00000	867.00000	3215.00000
1007.20968	0.29008	0.51276	5821.73207	889.84005	3418.69765	1005.30992	0.51231	5729.00000	896.00000	3372.00000
1013.40403	0.28837	0.51478	6108.36987	875.33513	3569.22101	1011.50029	0.51385	6031.00000	870.00000	3522.00000
1019.59839	0.28525	0.51850	6349.51155	919.49996	3734.98394	1017.69066	0.51744	6269.00000	908.00000	3682.00000
1025.79274	0.28342	0.52069	6610.09178	908.88037	3877.37241	1023.88103	0.52021	6536.00000	921.00000	3842.00000
1031.98710	0.28181	0.52263	6863.27600	885.10537	4009.53223	1030.07140	0.52181	6776.00000	883.00000	3958.00000
1038.18145	0.27992	0.52490	7137.95533	879.30949	4164.38989	1036.26177	0.52447	7062.00000	892.00000	4128.00000
1044.37581	0.27882	0.52624	7415.45215	852.78191	4306.39664	1042.45214	0.52560	7313.00000	848.00000	4246.00000
1050.57016	0.27683	0.52865	7763.75520	889.74850	4523.68539	1048.64251	0.52802	7664.00000	884.00000	4464.00000
1056.76452	0.27576	0.52995	8043.98752	873.54577	4673.51858	1054.83288	0.52960	7958.00000	881.00000	4629.00000
1062.95887	0.27448	0.53152	8346.47029	875.55305	4846.55111	1061.02325	0.53090	8246.00000	868.00000	4785.00000
1069.15323	0.27313	0.53318	8651.05608	883.28349	5024.85775	1067.21362	0.53284	8564.00000	890.00000	4979.00000
1075.34758	0.27235	0.53413	8931.01237	859.29405	5170.72216	1073.40399	0.53373	8836.00000	860.00000	5117.00000
1081.54194	0.27114	0.53563	9243.78719	871.40916	5355.81454	1079.59436	0.53521	9149.00000	870.00000	5301.00000
1087.73629	0.26973	0.53737	9580.78777	901.76500	5565.65990	1085.78473	0.53666	9462.00000	883.00000	5487.00000
1093.93065	0.26849	0.53891	9940.76391	922.65990	5782.50888	1091.97510	0.53873	9841.00000	933.00000	5732.00000
1100.12500	0.26880	0.53851	10254.38783	869.25749	5923.30706	1098.16547	0.53864	10144.00000	878.00000	5869.00000
1106.31935	0.26861	0.53875	10641.04469	875.00467	6136.44150	1104.35584	0.53857	10519.00000	873.00000	6068.00000
1112.51371	0.26806	0.53944	11015.80766	872.41348	6344.15680	1110.54621	0.53926	10897.00000	874.00000	6279.00000
1118.70806	0.26804	0.53946	11401.60672	872.77123	6552.60289	1116.73658	0.53955	11276.00000	871.00000	6485.00000
1124.90242	0.26825	0.53919	11814.30888	885.70510	6778.39831	1122.92695	0.53922	11680.00000	881.00000	6704.00000
1131.09677	0.26867	0.53868	12236.17715	886.26842	7000.21973	1129.11732	0.53902	12103.00000	890.00000	6934.00000
1137.29113	0.26994	0.53711	12606.57558	854.95675	7166.85292	1135.30769	0.53761	12498.00000	867.00000	7120.00000
1143.48548	0.27105	0.53574	12995.31207	851.62722	7357.46263	1141.49806	0.53614	12851.00000	843.00000	7281.00000
1149.67984	0.27195	0.53463	13491.13514	894.93569	7629.28565	1147.68843	0.53498	13335.00000	884.00000	7545.00000
1155.87419	0.27359	0.53261	13953.07917	885.15852	7845.24845	1153.87880	0.53350	13805.00000	896.00000	7783.00000
1162.06855	0.27594	0.52973	14446.12872	862.12568	8058.04418	1160.06917	0.53052	14279.00000	862.00000	7980.00000
1168.26290	0.27713	0.52828	14959.02414	891.75197	8323.26447	1166.25954	0.52863	14800.00000	881.00000	8239.00000
1174.45726	0.27827	0.52690	15420.71473	898.79570	8550.41505	1172.44991	0.52749	15273.00000	903.00000	8483.00000
1180.65161	0.27994	0.52488	15876.41905	861.08105	8742.36898	1178.64028	0.52548	15728.00000	875.00000	8680.00000
1186.84597	0.28073	0.52392	16371.22020	852.06070	8982.90038	1184.83065	0.52406	16201.00000	846.00000	8893.00000
1193.04032	0.28081	0.52383	16894.18264	880.38932	9268.81243	1191.02102	0.52387	16730.00000	875.00000	9181.00000
1199.23468	0.28068	0.52399	17400.55626	883.09277	9538.11296	1197.21139	0.52383	17229.00000	882.00000	9445.00000
1205.42903	0.27989	0.52494	17922.85290	876.52702	9824.75122	1203.40176	0.52459	17758.00000	882.00000	9735.00000
1211.62339	0.27867	0.52641	18412.23826	867.41129	10103.24331	1209.59213	0.52583	18250.00000	866.00000	10007.00000
1217.81774	0.27682	0.52867	18946.64823	877.09601	10429.82402	1215.78250	0.52787	18763.00000	876.00000	10318.00000
1224.01210	0.27452	0.53147	19522.38589	879.59709	10787.68411	1221.97287	0.53048	19334.00000	877.00000	10668.00000
1230.20645	0.27239	0.53409	20046.82356	877.27220	11115.40343	1228.16324	0.53336	19884.00000	882.00000	11017.00000
1236.40081	0.27062	0.53627	20578.92550	894.33634	11450.58945	1234.35361	0.53545	20387.00000	878.00000	11324.00000
1242.59516	0.26876	0.53857	21116.97255	904.50586	11790.25686	1240.54398	0.53794	20962.00000	919.00000	11701.00000
1248.78952	0.26765	0.53994	21555.61107	852.78714	12031.09375	1246.73435	0.53951	21399.00000	858.00000	11940.00000
1254.98387	0.26645	0.54144	22112.97196	897.03001	12384.13690	1252.92472	0.54090	21917.00000	878.00000	12258.00000
1261.17823	0.26540	0.54275	22669.33634	902.45329	12716.43601	1259.11509	0.54242	22498.00000	915.00000	12622.00000
1267.37258	0.26495	0.54332	23144.86310	840.51764	12958.76890	1265.30546	0.54316	22985.00000	857.00000	12876.00000
1273.56694	0.26407	0.54441	23720.39347	860.92978	13306.00585	1271.49583	0.54388	23506.00000	841.00000	13168.00000
1279.76129	0.26268	0.54616	24372.77955	913.59084	13726.12152	1277.68620	0.54566	24166.00000	906.00000	13598.00000
1285.95565	0.26178	0.54729	24945.52650	893.87771	14057.16287	1283.87657	0.54694	24754.00000	903.00000	13948.00000
1292.15000	0.26098	0.54830	25532.41484	877.59600	14395.87920	1290.06694	0.54797	25332.00000	880.00000	14279.00000
1298.34435	0.26021	0.54927	26175.67024	884.75253	14776.33364	1296.25731	0.54895	25949.00000	881.00000	14642.00000
1304.53871	0.25987	0.54970	26805.92834	868.00311	15126.13451	1302.44769	0.54969	26610.00000	881.00000	15024.00000
1310.73306	0.25993	0.54963	27432.03993	867.23944	15468.00473	1308.63806	0.54960	27196.00000	853.00000	15331.00000
1316.92742	0.26010	0.54941	28161.82657	892.73544	15874.59154	1314.82843	0.54962	27925.00000	899.00000	15753.00000
1323.12177	0.26107	0.54819	28842.74169	862.95220	16201.34015	1321.01880	0.54866	28606.00000	864.00000	16085.00000
1329.31613	0.26255	0.54632	29519.54369	871.94640	16522.78764	1327.20917	0.54707	29300.00000	874.00000	16425.00000
1335.51048	0.26472	0.54360	30183.25265	863.66515	16801.84271	1333.39954	0.54460	29944.00000	862.00000	16700.00000
1341.70484	0.26751	0.54012	30926.51890	893.32929	17114.80704	1339.58991	0.54142	30673.00000	881.00000	17011.00000
1347.89919	0.27099	0.53581	31587.63481	894.88004	17340.28041	1345.78028	0.53734	31380.00000	904.00000	17280.00000
1354.09355	0.27465	0.53131	32227.78710	859.30420	17525.60190	1351.97065	0.53282	31988.00000	867.00000	17449.00000
1360.28790	0.27808	0.52713	32929.95072	867.11433	17768.58711	1358.16102	0.52853	32704.00000	861.00000	17691.00000
1366.48226	0.28170	0.52276	33569.06337	866.55753	17961.98717	1364.35139	0.52436	33341.00000	873.00000	17898.00000
1372.67661	0.28580	0.51784	34261.83351	843.87902	18149.02503	1370.54176	0.51953	34024.00000	848.00000	18084.00000
1378.87097	0.29010	0.51274	34838.67465	870.52277	18287.31874	1376.73213	0.51457	34668.00000	855.00000	18254.00000
1385.06532	0.29499	0.50700	35121.03064	877.10458	18238.76848	1382.92250	0.50906	35059.00000	888.00000	18283.00000
1391.25968	0.30056	0.50055	35289.43299	872.38486	18099.59852	1389.11287	0.50288	35214.00000	858.00000	18135.00000
1397.45403	0.30785	0.49221	35460.60298	899.47130	17910.86255	1395.30324	0.49547	35427.00000	906.00000	18010.00000
1403.64839	0.31808	0.48075	35666.10671	869.36576	17597.79759	1401.49361	0.48505	35545.00000	870.00000	17689.00000
1409.84274	0.33096	0.46671	36323.03255	883.09719	17423.00006	1407.68398	0.47186	36050.00000	883.00000	17477.00000
1416.03710	0.34507	0.45178	37284.68636	884.03189	17329.27969	1413.87435	0.45688	36926.00000	879.00000	17348.00000
1422.23145	0.35828	0.43824	38329.42739	892.53935	17299.08243	1420.06472	0.44281	37970.00000	895.00000	17312.00000
1428.42581	0.36985	0.42672	39434.74114	878.71439	17331.38128	1426.25509	0.43046	39022.00000	881.00000	17299.00000
1434.62016	0.37895	0.41788	40575.07439	880.06733	17467.80661	1432.44546	0.42070	40203.00000	880.00000	17423.00000
1440.81452	0.38555	0.41158	41493.68414	879.47622	17595.32309	1438.63583	0.41350	41184.00000	879.00000	17545.00000
1447.00887	0.38969	0.40767	42510.04768	905.41306	17866.40383	1444.82620	0.40881	42113.00000	891.00000	17743.00000
1453.20323	0.39251	0.40503	43543.72896	892.86717	18167.89560	1451.01657	0.40593	43229.00000	914.00000	18091.00000
1459.39758	0.39444	0.40324	44405.02794	864.61268	18421.92941	1457.20694	0.40368	44070.00000	855.00000	18300.00000
1465.59194	0.39513	0.40260	45481.34063	906.97918	18852.36277	1463.39731	0.40280	45094.00000	903.00000	18703.00000
1471.78629	0.39544	0.40231	46480.51435	890.87025	19232.19885	1469.58768	0.40233	46150.00000	894.00000	19102.00000
1477.98065	0.39512	0.40261	47320.91755	868.50781	19570.52059	1475.77805	0.40246	47029.00000	883.00000	19455.00000
1484.17500	0.39430	0.40337	48225.65661	857.63729	19964.47256	1481.96842	0.40302	47881.00000	849.00000	19804.00000
1490.36935	0.39315	0.40443	49092.30051	893.89890	20386.80932	1488.15879	0.40407	48824.00000	887.00000	20257.00000
1496.56371	0.39190	0.40560	49778.04514	887.35808	20717.63371	1494.34916	0.40512	49521.00000	891.00000	20592.00000
1502.75806	0.39011	0.40727	50469.48096	863.36996	21066.62502	1500.53953	0.40664	50241.00000	875.00000	20949.00000
1508.95242	0.38782	0.40943	51158.04064	897.54966	21475.76049	1506.72990	0.40858	50884.00000	867.00000	21303.00000
1515.14677	0.38549	0.41164	51878.91086	902.58342	21886.22777	1512.92027	0.41093	51650.00000	933.00000	21774.00000
1521.34113	0.38318	0.41383	52577.57434	850.45197	22256.90724	1519.11064	0.41293	52288.00000	838.00000	22083.00000
1527.53548	0.38069	0.41621	53324.26188	911.75147	22726.04082	1525.30101	0.41547	53098.00000	907.00000	22591.00000
1533.72984	0.37894	0.41789	53919.19306	885.74627	23047.86912	1531.49138	0.41728	53680.00000	890.00000	22918.00000
1539.92419	0.37737	0.41940	54593.00479	874.24673	23403.77171	1537.68175	0.41892	54367.00000	884.00000	23289.00000
1546.11855	0.37616	0.42057	55208.54831	866.87961	23721.34847	1543.87212	0.42014	54973.00000	860.00000	23595.00000
1552.31290	0.37496	0.42173	55811.51925	888.84465	24051.59621	1550.06249	0.42133	55614.00000	887.00000	23945.00000
1558.50726	0.37387	0.42279	56431.29012	888.46797	24371.70849	1556.25286	0.42241	56172.00000	885.00000	24239.00000
1564.70161	0.37308	0.42356	57011.94896	890.80855	24661.47351	1562.44323	0.42335	56858.00000	895.00000	24587.00000
1570.89597	0.37253	0.42410	57413.89650	869.93991	24850.35998	1568.63360	0.42387	57231.00000	876.00000	24763.00000
1577.09032	0.37162	0.42499	57979.03512	879.44141	25146.07059	1574.82397	0.42463	57786.00000	871.00000	25039.00000
1583.28468	0.37063	0.42596	58450.11400	894.72676	25411.10843	1581.01434	0.42562	58279.00000	894.00000	25318.00000
1589.47903	0.36948	0.42709	58825.25008	895.18773	25636.74119	1587.20471	0.42662	58712.00000	892.00000	25559.00000
1595.67339	0.36786	0.42868	59146.72764	885.70009	25861.25470	1593.39508	0.42806	59009.00000	896.00000	25772.00000
1601.86774	0.36585	0.43067	59574.82387	893.37146	26165.99012	1599.58545	0.42988	59419.00000	877.00000	26043.00000
1608.06210	0.36360	0.43291	59920.72690	909.46488	26456.04791	1605.77582	0.43210	59809.00000	920.00000	26366.00000
1614.25645	0.36127	0.43524	60220.95853	887.30010	26711.57452	1611.96619	0.43433	60102.00000	882.00000	26603.00000
1620.45081	0.35912	0.43740	60438.83040	897.12192	26940.80520	1618.15656	0.43671	60391.00000	905.00000	26883.00000
1626.64516	0.35730	0.43924	60579.30309	884.35356	27104.87706	1624.34693	0.43850	60502.00000	878.00000	27023.00000
1632.83952	0.35548	0.44109	60848.95373	899.57786	27342.38321	1630.53730	0.44049	60754.00000	903.00000	27267.00000
1639.03387	0.35423	0.44236	60928.35809	870.27700	27437.34428	1636.72767	0.44190	60938.00000	879.00000	27419.00000
1645.22823	0.35313	0.44348	60778.06969	873.98452	27440.08850	1642.91804	0.44309	60849.00000	868.00000	27445.00000
1651.42258	0.35239	0.44423	59777.88214	914.49031	27063.13860	1649.10841	0.44401	60357.00000	896.00000	27297.00000
1657.61694	0.35255	0.44407	57642.70006	920.63108	26109.20615	1655.29878	0.44429	58452.00000	931.00000	26487.00000
1663.81129	0.35339	0.44321	56689.89176	898.36344	25625.57183	1661.48915	0.44350	56762.00000	897.00000	25673.00000
1670.00565	0.35396	0.44263	55553.85124	917.06266	25100.96109	1667.67952	0.44284	56404.00000	914.00000	25487.00000
1676.20000	0.35435	0.44223	52318.47966	879.24303	23627.47494	1673.86989	0.44233	53497.00000	901.00000	24166.00000
0.00000	0.00000	0.00000	0.00000	0.00000	0.00000	1680.06026	0.44241	50136.00000	860.00000	22660.00000
0.00000	0.00000	0.00000	0.00000	0.00000	0.00000	1686.25063	0.44354	46019.00000	923.00000	20925.00000
0.00000	0.00000	0.00000	0.00000	0.00000	0.00000	1692.44100	0.44354	46019.00000	923.00000	20925.00000
