'File Þ¹ÒÂ²Ý²è_3_2016Ò»ÔÂ28_1129.xls
'Part ID Þ¹ÒÂ²Ý²è_3
'Scan Created 2016/1/28 11:29:26
'Instrument S1-00205
'Version 1.5.7
'Integration Time 10100 µs
'Number of Scans 50
'Units Absorbance
'Thermistor 49.04
Wavelength	Absorbance	Normalized	100%	dark	Raw 1	Native Wvl	Native Norm	Native 100%	Native dark	Native 1
908.10000	0.36021	0.43631	3595.82598	881.87120	2065.84571	906.26400	0.43509	3684.00000	880.00000	2100.00000
914.29435	0.35634	0.44021	3338.07467	866.26472	1954.43073	912.45437	0.43908	3404.00000	876.00000	1986.00000
920.48871	0.34952	0.44718	3265.72768	878.51909	1946.06222	918.64474	0.44431	3257.00000	860.00000	1925.00000
926.68306	0.34282	0.45413	3334.01990	918.74175	2015.52888	924.83511	0.45333	3324.00000	924.00000	2012.00000
932.87742	0.34136	0.45566	3389.36197	864.93184	2015.28544	931.02548	0.45444	3355.00000	875.00000	2002.00000
939.07177	0.33479	0.46261	3619.59224	884.95115	2150.00637	937.21585	0.46059	3537.00000	873.00000	2100.00000
945.26613	0.33036	0.46735	3856.44440	889.93616	2276.30576	943.40622	0.46623	3802.00000	900.00000	2253.00000
951.46048	0.32655	0.47146	4005.12223	859.91735	2342.80374	949.59659	0.46996	3955.00000	859.00000	2314.00000
957.65484	0.32292	0.47543	4215.51392	893.73656	2472.95940	955.78696	0.47472	4148.00000	885.00000	2434.00000
963.84919	0.32132	0.47718	4374.23623	878.43417	2546.54920	961.97733	0.47640	4344.00000	891.00000	2536.00000
970.04355	0.31712	0.48182	4523.41127	896.06510	2643.87533	968.16770	0.48018	4453.00000	871.00000	2591.00000
976.23790	0.31516	0.48399	4726.50938	925.04592	2764.77239	974.35807	0.48426	4693.00000	945.00000	2760.00000
982.43226	0.31546	0.48366	4835.26800	856.06452	2780.77830	980.54844	0.48293	4778.00000	854.00000	2749.00000
988.62661	0.31221	0.48729	5079.18703	905.14928	2939.05415	986.73881	0.48662	5013.00000	901.00000	2902.00000
994.82097	0.31212	0.48740	5288.13901	870.37131	3023.60049	992.92918	0.48743	5216.00000	881.00000	2994.00000
1001.01532	0.31107	0.48857	5547.24444	876.96250	3158.76106	999.11955	0.48794	5470.00000	867.00000	3113.00000
1007.20968	0.30926	0.49061	5821.73207	889.84005	3309.43284	1005.30992	0.49017	5729.00000	896.00000	3265.00000
1013.40403	0.30732	0.49282	6108.36987	875.33513	3454.25586	1011.50029	0.49177	6031.00000	870.00000	3408.00000
1019.59839	0.30369	0.49695	6349.51155	919.49996	3617.96504	1017.69066	0.49580	6269.00000	908.00000	3566.00000
1025.79274	0.30219	0.49867	6610.09178	908.88037	3751.81202	1023.88103	0.49849	6536.00000	921.00000	3720.00000
1031.98710	0.30126	0.49974	6863.27600	885.10537	3872.72149	1030.07140	0.49907	6776.00000	883.00000	3824.00000
1038.18145	0.29918	0.50213	7137.95533	879.30949	4021.90639	1036.26177	0.50162	7062.00000	892.00000	3987.00000
1044.37581	0.29783	0.50369	7415.45215	852.78191	4158.43598	1042.45214	0.50302	7313.00000	848.00000	4100.00000
1050.57016	0.29581	0.50605	7763.75520	889.74850	4368.30331	1048.64251	0.50546	7664.00000	884.00000	4311.00000
1056.76452	0.29463	0.50742	8043.98752	873.54577	4511.99078	1054.83288	0.50699	7958.00000	881.00000	4469.00000
1062.95887	0.29317	0.50913	8346.47029	875.55305	4679.24295	1061.02325	0.50854	8246.00000	868.00000	4620.00000
1069.15323	0.29189	0.51063	8651.05608	883.28349	4849.69535	1067.21362	0.51029	8564.00000	890.00000	4806.00000
1075.34758	0.29094	0.51176	8931.01237	859.29405	4990.08035	1073.40399	0.51128	8836.00000	860.00000	4938.00000
1081.54194	0.28948	0.51348	9243.78719	871.40916	5170.41808	1079.59436	0.51298	9149.00000	870.00000	5117.00000
1087.73629	0.28814	0.51506	9580.78777	901.76500	5372.04787	1085.78473	0.51451	9462.00000	883.00000	5297.00000
1093.93065	0.28717	0.51622	9940.76391	922.65990	5577.91526	1091.97510	0.51605	9841.00000	933.00000	5530.00000
1100.12500	0.28719	0.51620	10254.38783	869.25749	5713.84692	1098.16547	0.51619	10144.00000	878.00000	5661.00000
1106.31935	0.28691	0.51652	10641.04469	875.00467	5919.35077	1104.35584	0.51638	10519.00000	873.00000	5854.00000
1112.51371	0.28641	0.51712	11015.80766	872.41348	6117.76983	1110.54621	0.51691	10897.00000	874.00000	6055.00000
1118.70806	0.28630	0.51725	11401.60672	872.77123	6318.78132	1116.73658	0.51735	11276.00000	871.00000	6254.00000
1124.90242	0.28647	0.51704	11814.30888	885.70510	6536.33834	1122.92695	0.51699	11680.00000	881.00000	6464.00000
1131.09677	0.28669	0.51679	12236.17715	886.26842	6751.67543	1129.11732	0.51708	12103.00000	890.00000	6688.00000
1137.29113	0.28790	0.51535	12606.57558	854.95675	6911.21089	1135.30769	0.51578	12498.00000	867.00000	6866.00000
1143.48548	0.28888	0.51419	12995.31207	851.62722	7095.73926	1141.49806	0.51457	12851.00000	843.00000	7022.00000
1149.67984	0.28987	0.51301	13491.13514	894.93569	7357.02295	1147.68843	0.51337	13335.00000	884.00000	7276.00000
1155.87419	0.29143	0.51117	13953.07917	885.15852	7565.03180	1153.87880	0.51197	13805.00000	896.00000	7505.00000
1162.06855	0.29367	0.50854	14446.12872	862.12568	7770.15723	1160.06917	0.50928	14279.00000	862.00000	7695.00000
1168.26290	0.29494	0.50706	14959.02414	891.75197	8024.68251	1166.25954	0.50744	14800.00000	881.00000	7944.00000
1174.45726	0.29620	0.50560	15420.71473	898.79570	8240.99455	1172.44991	0.50619	15273.00000	903.00000	8177.00000
1180.65161	0.29787	0.50365	15876.41905	861.08105	8423.52101	1178.64028	0.50421	15728.00000	875.00000	8364.00000
1186.84597	0.29864	0.50275	16371.22020	852.06070	8654.40601	1184.83065	0.50290	16201.00000	846.00000	8568.00000
1193.04032	0.29874	0.50264	16894.18264	880.38932	8929.57145	1191.02102	0.50268	16730.00000	875.00000	8845.00000
1199.23468	0.29860	0.50281	17400.55626	883.09277	9188.23498	1197.21139	0.50266	17229.00000	882.00000	9099.00000
1205.42903	0.29779	0.50374	17922.85290	876.52702	9463.46628	1203.40176	0.50338	17758.00000	882.00000	9377.00000
1211.62339	0.29642	0.50534	18412.23826	867.41129	9733.52696	1209.59213	0.50472	18250.00000	866.00000	9640.00000
1217.81774	0.29432	0.50778	18946.64823	877.09601	10052.52885	1215.78250	0.50690	18763.00000	876.00000	9943.00000
1224.01210	0.29183	0.51071	19522.38589	879.59709	10400.65475	1221.97287	0.50973	19334.00000	877.00000	10285.00000
1230.20645	0.28958	0.51336	20046.82356	877.27220	10718.07121	1228.16324	0.51258	19884.00000	882.00000	10622.00000
1236.40081	0.28766	0.51563	20578.92550	894.33634	11044.33577	1234.35361	0.51484	20387.00000	878.00000	10922.00000
1242.59516	0.28582	0.51782	21116.97255	904.50586	11370.90485	1240.54398	0.51719	20962.00000	919.00000	11285.00000
1248.78952	0.28464	0.51923	21555.61107	852.78714	11602.24950	1246.73435	0.51882	21399.00000	858.00000	11515.00000
1254.98387	0.28341	0.52070	22112.97196	897.03001	11944.21510	1252.92472	0.52013	21917.00000	878.00000	11821.00000
1261.17823	0.28220	0.52215	22669.33634	902.45329	12268.08039	1259.11509	0.52180	22498.00000	915.00000	12177.00000
1267.37258	0.28174	0.52271	23144.86310	840.51764	12499.22579	1265.30546	0.52255	22985.00000	857.00000	12420.00000
1273.56694	0.28085	0.52378	23720.39347	860.92978	12834.38092	1271.49583	0.52327	23506.00000	841.00000	12701.00000
1279.76129	0.27943	0.52550	24372.77955	913.59084	13241.28883	1277.68620	0.52498	24166.00000	906.00000	13117.00000
1285.95565	0.27847	0.52665	24945.52650	893.87771	13560.80121	1283.87657	0.52631	24754.00000	903.00000	13456.00000
1292.15000	0.27763	0.52768	25532.41484	877.59600	13887.49043	1290.06694	0.52732	25332.00000	880.00000	13774.00000
1298.34435	0.27677	0.52873	26175.67024	884.75253	14256.78371	1296.25731	0.52840	25949.00000	881.00000	14127.00000
1304.53871	0.27641	0.52916	26805.92834	868.00311	14593.39083	1302.44769	0.52913	26610.00000	881.00000	14495.00000
1310.73306	0.27638	0.52920	27432.03993	867.23944	14925.38735	1308.63806	0.52913	27196.00000	853.00000	14792.00000
1316.92742	0.27645	0.52912	28161.82657	892.73544	15321.21776	1314.82843	0.52927	27925.00000	899.00000	15203.00000
1323.12177	0.27733	0.52804	28842.74169	862.95220	15637.35741	1321.01880	0.52848	28606.00000	864.00000	15525.00000
1329.31613	0.27876	0.52631	29519.54369	871.94640	15949.58189	1327.20917	0.52698	29300.00000	874.00000	15854.00000
1335.51048	0.28082	0.52382	30183.25265	863.66515	16221.71348	1333.39954	0.52476	29944.00000	862.00000	16123.00000
1341.70484	0.28353	0.52056	30926.51890	893.32929	16527.53660	1339.58991	0.52175	30673.00000	881.00000	16425.00000
1347.89919	0.28683	0.51662	31587.63481	894.88004	16751.27326	1345.78028	0.51805	31380.00000	904.00000	16692.00000
1354.09355	0.29047	0.51231	32227.78710	859.30420	16929.65387	1351.97065	0.51377	31988.00000	867.00000	16856.00000
1360.28790	0.29384	0.50835	32929.95072	867.11433	17166.27697	1358.16102	0.50966	32704.00000	861.00000	17090.00000
1366.48226	0.29737	0.50424	33569.06337	866.55753	17356.24504	1364.35139	0.50576	33341.00000	873.00000	17294.00000
1372.67661	0.30150	0.49946	34261.83351	843.87902	17534.67303	1370.54176	0.50112	34024.00000	848.00000	17473.00000
1378.87097	0.30583	0.49451	34838.67465	870.52277	17668.04909	1376.73213	0.49626	34668.00000	855.00000	17635.00000
1385.06532	0.31067	0.48902	35121.03064	877.10458	17623.24003	1382.92250	0.49100	35059.00000	888.00000	17666.00000
1391.25968	0.31626	0.48277	35289.43299	872.38486	17487.93364	1389.11287	0.48504	35214.00000	858.00000	17522.00000
1397.45403	0.32351	0.47478	35460.60298	899.47130	17308.43312	1395.30324	0.47788	35427.00000	906.00000	17403.00000
1403.64839	0.33366	0.46381	35666.10671	869.36576	17008.33935	1401.49361	0.46795	35545.00000	870.00000	17096.00000
1409.84274	0.34654	0.45026	36323.03255	883.09719	16840.17612	1407.68398	0.45523	36050.00000	883.00000	16892.00000
1416.03710	0.36066	0.43585	37284.68636	884.03189	16749.40642	1413.87435	0.44079	36926.00000	879.00000	16768.00000
1422.23145	0.37396	0.42271	38329.42739	892.53935	16717.56047	1420.06472	0.42713	37970.00000	895.00000	16731.00000
1428.42581	0.38564	0.41149	39434.74114	878.71439	16744.01399	1426.25509	0.41514	39022.00000	881.00000	16715.00000
1434.62016	0.39511	0.40262	40575.07439	880.06733	16861.97166	1432.44546	0.40549	40203.00000	880.00000	16825.00000
1440.81452	0.40212	0.39617	41493.68414	879.47622	16969.77639	1438.63583	0.39811	41184.00000	879.00000	16925.00000
1447.00887	0.40645	0.39224	42510.04768	905.41306	17224.39494	1444.82620	0.39341	42113.00000	891.00000	17108.00000
1453.20323	0.40949	0.38951	43543.72896	892.86717	17505.64099	1451.01657	0.39043	43229.00000	914.00000	17435.00000
1459.39758	0.41153	0.38768	44405.02794	864.61268	17744.44675	1457.20694	0.38813	44070.00000	855.00000	17628.00000
1465.59194	0.41219	0.38709	45481.34063	906.97918	18161.10463	1463.39731	0.38725	45094.00000	903.00000	18016.00000
1471.78629	0.41244	0.38686	46480.51435	890.87025	18527.81662	1469.58768	0.38689	46150.00000	894.00000	18403.00000
1477.98065	0.41218	0.38710	47320.91755	868.50781	18850.18188	1475.77805	0.38697	47029.00000	883.00000	18740.00000
1484.17500	0.41136	0.38783	48225.65661	857.63729	19228.36299	1481.96842	0.38750	47881.00000	849.00000	19074.00000
1490.36935	0.41024	0.38883	49092.30051	893.89890	19634.83170	1488.15879	0.38849	48824.00000	887.00000	19510.00000
1496.56371	0.40904	0.38991	49778.04514	887.35808	19950.27185	1494.34916	0.38947	49521.00000	891.00000	19831.00000
1502.75806	0.40730	0.39147	50469.48096	863.36996	20282.53750	1500.53953	0.39086	50241.00000	875.00000	20170.00000
1508.95242	0.40503	0.39352	51158.04064	897.54966	20676.19393	1506.72990	0.39273	50884.00000	867.00000	20510.00000
1515.14677	0.40275	0.39560	51878.91086	902.58342	21068.51967	1512.92027	0.39492	51650.00000	933.00000	20962.00000
1521.34113	0.40041	0.39773	52577.57434	850.45197	21423.89422	1519.11064	0.39685	52288.00000	838.00000	21256.00000
1527.53548	0.39794	0.40000	53324.26188	911.75147	21876.66599	1525.30101	0.39930	53098.00000	907.00000	21747.00000
1533.72984	0.39619	0.40161	53919.19306	885.74627	22184.84586	1531.49138	0.40102	53680.00000	890.00000	22060.00000
1539.92419	0.39461	0.40308	54593.00479	874.24673	22526.91274	1537.68175	0.40261	54367.00000	884.00000	22417.00000
1546.11855	0.39340	0.40420	55208.54831	866.87961	22831.86046	1543.87212	0.40378	54973.00000	860.00000	22710.00000
1552.31290	0.39219	0.40533	55811.51925	888.84465	23150.49084	1550.06249	0.40494	55614.00000	887.00000	23048.00000
1558.50726	0.39117	0.40628	56431.29012	888.46797	23454.71093	1556.25286	0.40595	56172.00000	885.00000	23329.00000
1564.70161	0.39048	0.40693	57011.94896	890.80855	23727.99473	1562.44323	0.40675	56858.00000	895.00000	23658.00000
1570.89597	0.38990	0.40747	57413.89650	869.93991	23910.19236	1568.63360	0.40722	57231.00000	876.00000	23825.00000
1577.09032	0.38900	0.40832	57979.03512	879.44141	24194.53796	1574.82397	0.40801	57786.00000	871.00000	24093.00000
1583.28468	0.38810	0.40917	58450.11400	894.72676	24444.46475	1581.01434	0.40885	58279.00000	894.00000	24356.00000
1589.47903	0.38697	0.41023	58825.25008	895.18773	24659.91626	1587.20471	0.40979	58712.00000	892.00000	24586.00000
1595.67339	0.38540	0.41172	59146.72764	885.70009	24872.84992	1593.39508	0.41113	59009.00000	896.00000	24788.00000
1601.86774	0.38344	0.41358	59574.82387	893.37146	25163.01884	1599.58545	0.41285	59419.00000	877.00000	25046.00000
1608.06210	0.38130	0.41562	59920.72690	909.46488	25435.67221	1605.77582	0.41488	59809.00000	920.00000	25352.00000
1614.25645	0.37912	0.41771	60220.95853	887.30010	25671.85739	1611.96619	0.41690	60102.00000	882.00000	25571.00000
1620.45081	0.37707	0.41969	60438.83040	897.12192	25886.13512	1618.15656	0.41904	60391.00000	905.00000	25832.00000
1626.64516	0.37531	0.42139	60579.30309	884.35356	26039.34954	1624.34693	0.42072	60502.00000	878.00000	25963.00000
1632.83952	0.37364	0.42302	60848.95373	899.57786	26259.50708	1630.53730	0.42250	60754.00000	903.00000	26190.00000
1639.03387	0.37247	0.42416	60928.35809	870.27700	26344.77810	1636.72767	0.42375	60938.00000	879.00000	26329.00000
1645.22823	0.37142	0.42519	60778.06969	873.98452	26344.50391	1642.91804	0.42483	60849.00000	868.00000	26350.00000
1651.42258	0.37076	0.42584	59777.88214	914.49031	25980.58909	1649.10841	0.42566	60357.00000	896.00000	26206.00000
1657.61694	0.37098	0.42562	57642.70006	920.63108	25062.73797	1655.29878	0.42584	58452.00000	931.00000	25426.00000
1663.81129	0.37185	0.42477	56689.89176	898.36344	24596.55958	1661.48915	0.42506	56762.00000	897.00000	24643.00000
1670.00565	0.37244	0.42419	55553.85124	917.06266	24093.58760	1667.67952	0.42438	56404.00000	914.00000	24463.00000
1676.20000	0.37276	0.42387	52318.47966	879.24303	22683.30908	1673.86989	0.42395	53497.00000	901.00000	23199.00000
0.00000	0.00000	0.00000	0.00000	0.00000	0.00000	1680.06026	0.42408	50136.00000	860.00000	21757.00000
0.00000	0.00000	0.00000	0.00000	0.00000	0.00000	1686.25063	0.42520	46019.00000	923.00000	20098.00000
0.00000	0.00000	0.00000	0.00000	0.00000	0.00000	1692.44100	0.42520	46019.00000	923.00000	20098.00000
