'File Þ¹ÒÂ²Ý²è_4_2016Ò»ÔÂ28_1129.xls
'Part ID Þ¹ÒÂ²Ý²è_4
'Scan Created 2016/1/28 11:29:31
'Instrument S1-00205
'Version 1.5.7
'Integration Time 10100 µs
'Number of Scans 50
'Units Absorbance
'Thermistor 49.04
Wavelength	Absorbance	Normalized	100%	dark	Raw 1	Native Wvl	Native Norm	Native 100%	Native dark	Native 1
908.10000	0.34905	0.44766	3595.82598	881.87120	2096.73538	906.26400	0.44686	3684.00000	880.00000	2133.00000
914.29435	0.34513	0.45172	3338.07467	866.26472	1982.81736	912.45437	0.45016	3404.00000	876.00000	2014.00000
920.48871	0.33771	0.45950	3265.72768	878.51909	1975.49339	918.64474	0.45682	3257.00000	860.00000	1955.00000
926.68306	0.33228	0.46528	3334.01990	918.74175	2042.45636	924.83511	0.46458	3324.00000	924.00000	2039.00000
932.87742	0.33010	0.46763	3389.36197	864.93184	2045.51047	931.02548	0.46613	3355.00000	875.00000	2031.00000
939.07177	0.32326	0.47505	3619.59224	884.95115	2184.02178	937.21585	0.47297	3537.00000	873.00000	2133.00000
945.26613	0.31900	0.47973	3856.44440	889.93616	2313.04425	943.40622	0.47864	3802.00000	900.00000	2289.00000
951.46048	0.31549	0.48363	4005.12223	859.91735	2381.06877	949.59659	0.48224	3955.00000	859.00000	2352.00000
957.65484	0.31213	0.48738	4215.51392	893.73656	2512.68089	955.78696	0.48667	4148.00000	885.00000	2473.00000
963.84919	0.31027	0.48947	4374.23623	878.43417	2589.51194	961.97733	0.48856	4344.00000	891.00000	2578.00000
970.04355	0.30588	0.49445	4523.41127	896.06510	2689.71799	968.16770	0.49274	4453.00000	871.00000	2636.00000
976.23790	0.30423	0.49633	4726.50938	925.04592	2811.67872	974.35807	0.49680	4693.00000	945.00000	2807.00000
982.43226	0.30477	0.49571	4835.26800	856.06452	2828.74803	980.54844	0.49490	4778.00000	854.00000	2796.00000
988.62661	0.30127	0.49972	5079.18703	905.14928	2990.89301	986.73881	0.49903	5013.00000	901.00000	2953.00000
994.82097	0.30099	0.50005	5288.13901	870.37131	3079.51578	992.92918	0.49988	5216.00000	881.00000	3048.00000
1001.01532	0.29973	0.50150	5547.24444	876.96250	3219.09427	999.11955	0.50098	5470.00000	867.00000	3173.00000
1007.20968	0.29848	0.50294	5821.73207	889.84005	3370.29425	1005.30992	0.50259	5729.00000	896.00000	3325.00000
1013.40403	0.29653	0.50521	6108.36987	875.33513	3519.11799	1011.50029	0.50417	6031.00000	870.00000	3472.00000
1019.59839	0.29307	0.50924	6349.51155	919.49996	3684.73905	1017.69066	0.50811	6269.00000	908.00000	3632.00000
1025.79274	0.29130	0.51133	6610.09178	908.88037	3824.00365	1023.88103	0.51095	6536.00000	921.00000	3790.00000
1031.98710	0.29002	0.51284	6863.27600	885.10537	3951.02431	1030.07140	0.51213	6776.00000	883.00000	3901.00000
1038.18145	0.28815	0.51505	7137.95533	879.30949	4102.75378	1036.26177	0.51459	7062.00000	892.00000	4067.00000
1044.37581	0.28695	0.51648	7415.45215	852.78191	4242.32520	1042.45214	0.51585	7313.00000	848.00000	4183.00000
1050.57016	0.28505	0.51874	7763.75520	889.74850	4455.52331	1048.64251	0.51814	7664.00000	884.00000	4397.00000
1056.76452	0.28390	0.52011	8043.98752	873.54577	4602.99146	1054.83288	0.51971	7958.00000	881.00000	4559.00000
1062.95887	0.28256	0.52173	8346.47029	875.55305	4773.34147	1061.02325	0.52114	8246.00000	868.00000	4713.00000
1069.15323	0.28125	0.52330	8651.05608	883.28349	4948.13068	1067.21362	0.52293	8564.00000	890.00000	4903.00000
1075.34758	0.28039	0.52434	8931.01237	859.29405	5091.66648	1073.40399	0.52395	8836.00000	860.00000	5039.00000
1081.54194	0.27928	0.52568	9243.78719	871.40916	5272.58204	1079.59436	0.52530	9149.00000	870.00000	5219.00000
1087.73629	0.27796	0.52728	9580.78777	901.76500	5478.06279	1085.78473	0.52663	9462.00000	883.00000	5401.00000
1093.93065	0.27679	0.52870	9940.76391	922.65990	5690.44574	1091.97510	0.52851	9841.00000	933.00000	5641.00000
1100.12500	0.27687	0.52861	10254.38783	869.25749	5830.36145	1098.16547	0.52860	10144.00000	878.00000	5776.00000
1106.31935	0.27660	0.52893	10641.04469	875.00467	6040.51381	1104.35584	0.52882	10519.00000	873.00000	5974.00000
1112.51371	0.27627	0.52934	11015.80766	872.41348	6241.70652	1110.54621	0.52918	10897.00000	874.00000	6178.00000
1118.70806	0.27612	0.52951	11401.60672	872.77123	6447.88360	1116.73658	0.52955	11276.00000	871.00000	6381.00000
1124.90242	0.27632	0.52927	11814.30888	885.70510	6669.96011	1122.92695	0.52931	11680.00000	881.00000	6597.00000
1131.09677	0.27665	0.52887	12236.17715	886.26842	6888.84873	1129.11732	0.52912	12103.00000	890.00000	6823.00000
1137.29113	0.27763	0.52767	12606.57558	854.95675	7056.00448	1135.30769	0.52807	12498.00000	867.00000	7009.00000
1143.48548	0.27870	0.52638	12995.31207	851.62722	7243.82297	1141.49806	0.52682	12851.00000	843.00000	7169.00000
1149.67984	0.27973	0.52513	13491.13514	894.93569	7509.63332	1147.68843	0.52550	13335.00000	884.00000	7427.00000
1155.87419	0.28132	0.52322	13953.07917	885.15852	7722.47002	1153.87880	0.52405	13805.00000	896.00000	7661.00000
1162.06855	0.28352	0.52057	14446.12872	862.12568	7933.56651	1160.06917	0.52128	14279.00000	862.00000	7856.00000
1168.26290	0.28464	0.51923	14959.02414	891.75197	8195.97520	1166.25954	0.51958	14800.00000	881.00000	8113.00000
1174.45726	0.28589	0.51774	15420.71473	898.79570	8417.37576	1172.44991	0.51837	15273.00000	903.00000	8352.00000
1180.65161	0.28763	0.51566	15876.41905	861.08105	8603.93596	1178.64028	0.51626	15728.00000	875.00000	8543.00000
1186.84597	0.28829	0.51489	16371.22020	852.06070	8842.78447	1184.83065	0.51495	16201.00000	846.00000	8753.00000
1193.04032	0.28838	0.51478	16894.18264	880.38932	9123.82864	1191.02102	0.51492	16730.00000	875.00000	9039.00000
1199.23468	0.28846	0.51468	17400.55626	883.09277	9384.38576	1197.21139	0.51453	17229.00000	882.00000	9293.00000
1205.42903	0.28752	0.51579	17922.85290	876.52702	9668.86568	1203.40176	0.51541	17758.00000	882.00000	9580.00000
1211.62339	0.28631	0.51724	18412.23826	867.41129	9942.31207	1209.59213	0.51668	18250.00000	866.00000	9848.00000
1217.81774	0.28436	0.51956	18946.64823	877.09601	10265.39503	1215.78250	0.51870	18763.00000	876.00000	10154.00000
1224.01210	0.28198	0.52243	19522.38589	879.59709	10619.07785	1221.97287	0.52148	19334.00000	877.00000	10502.00000
1230.20645	0.27986	0.52498	20046.82356	877.27220	10940.85097	1228.16324	0.52421	19884.00000	882.00000	10843.00000
1236.40081	0.27807	0.52714	20578.92550	894.33634	11270.88653	1234.35361	0.52642	20387.00000	878.00000	11148.00000
1242.59516	0.27637	0.52921	21116.97255	904.50586	11601.20981	1240.54398	0.52856	20962.00000	919.00000	11513.00000
1248.78952	0.27514	0.53071	21555.61107	852.78714	11840.03390	1246.73435	0.53031	21399.00000	858.00000	11751.00000
1254.98387	0.27403	0.53208	22112.97196	897.03001	12185.58222	1252.92472	0.53154	21917.00000	878.00000	12061.00000
1261.17823	0.27286	0.53350	22669.33634	902.45329	12515.14201	1259.11509	0.53315	22498.00000	915.00000	12422.00000
1267.37258	0.27243	0.53404	23144.86310	840.51764	12751.86968	1265.30546	0.53389	22985.00000	857.00000	12671.00000
1273.56694	0.27159	0.53507	23720.39347	860.92978	13092.50344	1271.49583	0.53457	23506.00000	841.00000	12957.00000
1279.76129	0.27026	0.53671	24372.77955	913.59084	13504.41794	1277.68620	0.53624	24166.00000	906.00000	13379.00000
1285.95565	0.26935	0.53784	24945.52650	893.87771	13829.81032	1283.87657	0.53746	24754.00000	903.00000	13722.00000
1292.15000	0.26850	0.53888	25532.41484	877.59600	14163.65984	1290.06694	0.53857	25332.00000	880.00000	14049.00000
1298.34435	0.26782	0.53974	26175.67024	884.75253	14535.23981	1296.25731	0.53945	25949.00000	881.00000	14404.00000
1304.53871	0.26747	0.54016	26805.92834	868.00311	14878.70225	1302.44769	0.54013	26610.00000	881.00000	14778.00000
1310.73306	0.26750	0.54013	27432.03993	867.23944	15215.76763	1308.63806	0.54011	27196.00000	853.00000	15081.00000
1316.92742	0.26767	0.53993	28161.82657	892.73544	15616.00551	1314.82843	0.54011	27925.00000	899.00000	15496.00000
1323.12177	0.26857	0.53880	28842.74169	862.95220	15938.61195	1321.01880	0.53925	28606.00000	864.00000	15824.00000
1329.31613	0.27002	0.53701	29519.54369	871.94640	16255.92599	1327.20917	0.53771	29300.00000	874.00000	16159.00000
1335.51048	0.27211	0.53442	30183.25265	863.66515	16532.75603	1333.39954	0.53538	29944.00000	862.00000	16432.00000
1341.70484	0.27483	0.53109	30926.51890	893.32929	16843.75141	1339.58991	0.53232	30673.00000	881.00000	16740.00000
1347.89919	0.27817	0.52703	31587.63481	894.88004	17070.78397	1345.78028	0.52848	31380.00000	904.00000	17010.00000
1354.09355	0.28172	0.52274	32227.78710	859.30420	17256.65645	1351.97065	0.52418	31988.00000	867.00000	17180.00000
1360.28790	0.28505	0.51874	32929.95072	867.11433	17499.58090	1358.16102	0.52008	32704.00000	861.00000	17422.00000
1366.48226	0.28859	0.51453	33569.06337	866.55753	17692.91661	1364.35139	0.51608	33341.00000	873.00000	17629.00000
1372.67661	0.29266	0.50973	34261.83351	843.87902	17877.92318	1370.54176	0.51139	34024.00000	848.00000	17814.00000
1378.87097	0.29691	0.50477	34838.67465	870.52277	18016.66798	1376.73213	0.50652	34668.00000	855.00000	17982.00000
1385.06532	0.30170	0.49923	35121.03064	877.10458	17972.72206	1382.92250	0.50124	35059.00000	888.00000	18016.00000
1391.25968	0.30719	0.49296	35289.43299	872.38486	17838.39983	1389.11287	0.49520	35214.00000	858.00000	17871.00000
1397.45403	0.31429	0.48496	35460.60298	899.47130	17660.42571	1395.30324	0.48811	35427.00000	906.00000	17756.00000
1403.64839	0.32443	0.47377	35666.10671	869.36576	17355.09945	1401.49361	0.47798	35545.00000	870.00000	17444.00000
1409.84274	0.33723	0.46001	36323.03255	883.09719	17185.84202	1407.68398	0.46507	36050.00000	883.00000	17238.00000
1416.03710	0.35132	0.44533	37284.68636	884.03189	17094.16761	1413.87435	0.45036	36926.00000	879.00000	17113.00000
1422.23145	0.36464	0.43188	38329.42739	892.53935	17060.75280	1420.06472	0.43641	37970.00000	895.00000	17075.00000
1428.42581	0.37631	0.42043	39434.74114	878.71439	17088.73110	1426.25509	0.42414	39022.00000	881.00000	17058.00000
1434.62016	0.38562	0.41151	40575.07439	880.06733	17214.83532	1432.44546	0.41439	40203.00000	880.00000	17175.00000
1440.81452	0.39254	0.40500	41493.68414	879.47622	17328.27105	1438.63583	0.40697	41184.00000	879.00000	17282.00000
1447.00887	0.39683	0.40102	42510.04768	905.41306	17589.83055	1444.82620	0.40219	42113.00000	891.00000	17470.00000
1453.20323	0.39975	0.39833	43543.72896	892.86717	17882.17475	1451.01657	0.39924	43229.00000	914.00000	17808.00000
1459.39758	0.40180	0.39646	44405.02794	864.61268	18126.83850	1457.20694	0.39695	44070.00000	855.00000	18009.00000
1465.59194	0.40255	0.39578	45481.34063	906.97918	18548.59473	1463.39731	0.39596	45094.00000	903.00000	18401.00000
1471.78629	0.40281	0.39554	46480.51435	890.87025	18923.51517	1469.58768	0.39557	46150.00000	894.00000	18796.00000
1477.98065	0.40257	0.39576	47320.91755	868.50781	19252.54568	1475.77805	0.39564	47029.00000	883.00000	19140.00000
1484.17500	0.40178	0.39648	48225.65661	857.63729	19638.19900	1481.96842	0.39616	47881.00000	849.00000	19481.00000
1490.36935	0.40067	0.39749	49092.30051	893.89890	20052.45507	1488.15879	0.39715	48824.00000	887.00000	19925.00000
1496.56371	0.39948	0.39859	49778.04514	887.35808	20374.62810	1494.34916	0.39815	49521.00000	891.00000	20253.00000
1502.75806	0.39780	0.40013	50469.48096	863.36996	20712.05519	1500.53953	0.39953	50241.00000	875.00000	20598.00000
1508.95242	0.39556	0.40220	51158.04064	897.54966	21112.48700	1506.72990	0.40138	50884.00000	867.00000	20943.00000
1515.14677	0.39325	0.40435	51878.91086	902.58342	21514.55144	1512.92027	0.40365	51650.00000	933.00000	21405.00000
1521.34113	0.39098	0.40646	52577.57434	850.45197	21875.74290	1519.11064	0.40560	52288.00000	838.00000	21706.00000
1527.53548	0.38852	0.40877	53324.26188	911.75147	22336.13817	1525.30101	0.40804	53098.00000	907.00000	22203.00000
1533.72984	0.38674	0.41045	53919.19306	885.74627	22653.62264	1531.49138	0.40985	53680.00000	890.00000	22526.00000
1539.92419	0.38522	0.41189	54593.00479	874.24673	23000.21141	1537.68175	0.41144	54367.00000	884.00000	22889.00000
1546.11855	0.38405	0.41300	55208.54831	866.87961	23310.15938	1543.87212	0.41258	54973.00000	860.00000	23186.00000
1552.31290	0.38287	0.41412	55811.51925	888.84465	23633.48144	1550.06249	0.41374	55614.00000	887.00000	23530.00000
1558.50726	0.38183	0.41511	56431.29012	888.46797	23945.04758	1556.25286	0.41474	56172.00000	885.00000	23815.00000
1564.70161	0.38109	0.41583	57011.94896	890.80855	24227.40258	1562.44323	0.41565	56858.00000	895.00000	24156.00000
1570.89597	0.38058	0.41631	57413.89650	869.93991	24409.73316	1568.63360	0.41608	57231.00000	876.00000	24324.00000
1577.09032	0.37967	0.41719	57979.03512	879.44141	24700.65594	1574.82397	0.41685	57786.00000	871.00000	24596.00000
1583.28468	0.37880	0.41802	58450.11400	894.72676	24954.19670	1581.01434	0.41774	58279.00000	894.00000	24866.00000
1589.47903	0.37773	0.41906	58825.25008	895.18773	25171.08225	1587.20471	0.41859	58712.00000	892.00000	25095.00000
1595.67339	0.37610	0.42063	59146.72764	885.70009	25392.22359	1593.39508	0.42003	59009.00000	896.00000	25305.00000
1601.86774	0.37417	0.42251	59574.82387	893.37146	25686.63995	1599.58545	0.42177	59419.00000	877.00000	25568.00000
1608.06210	0.37203	0.42459	59920.72690	909.46488	25964.97582	1605.77582	0.42383	59809.00000	920.00000	25879.00000
1614.25645	0.36981	0.42677	60220.95853	887.30010	26209.08829	1611.96619	0.42592	60102.00000	882.00000	26105.00000
1620.45081	0.36773	0.42882	60438.83040	897.12192	26429.66111	1618.15656	0.42815	60391.00000	905.00000	26374.00000
1626.64516	0.36598	0.43054	60579.30309	884.35356	26585.53792	1624.34693	0.42986	60502.00000	878.00000	26508.00000
1632.83952	0.36426	0.43226	60848.95373	899.57786	26813.02030	1630.53730	0.43169	60754.00000	903.00000	26740.00000
1639.03387	0.36306	0.43345	60928.35809	870.27700	26902.61282	1636.72767	0.43304	60938.00000	879.00000	26887.00000
1645.22823	0.36204	0.43447	60778.06969	873.98452	26900.70528	1642.91804	0.43410	60849.00000	868.00000	26906.00000
1651.42258	0.36137	0.43515	59777.88214	914.49031	26528.47147	1649.10841	0.43497	60357.00000	896.00000	26760.00000
1657.61694	0.36164	0.43487	57642.70006	920.63108	25587.43493	1655.29878	0.43511	58452.00000	931.00000	25959.00000
1663.81129	0.36252	0.43399	56689.89176	898.36344	25111.26136	1661.48915	0.43430	56762.00000	897.00000	25159.00000
1670.00565	0.36316	0.43335	55553.85124	917.06266	24593.93586	1667.67952	0.43357	56404.00000	914.00000	24973.00000
1676.20000	0.36354	0.43297	52318.47966	879.24303	23151.22397	1673.86989	0.43306	53497.00000	901.00000	23678.00000
0.00000	0.00000	0.00000	0.00000	0.00000	0.00000	1680.06026	0.43317	50136.00000	860.00000	22205.00000
0.00000	0.00000	0.00000	0.00000	0.00000	0.00000	1686.25063	0.43425	46019.00000	923.00000	20506.00000
0.00000	0.00000	0.00000	0.00000	0.00000	0.00000	1692.44100	0.43425	46019.00000	923.00000	20506.00000
