'File Þ¹ÒÂ²Ý²è_1_2016Ò»ÔÂ28_1129.xls
'Part ID Þ¹ÒÂ²Ý²è_1
'Scan Created 2016/1/28 11:29:15
'Instrument S1-00205
'Version 1.5.7
'Integration Time 10100 µs
'Number of Scans 50
'Units Absorbance
'Thermistor 49.04
Wavelength	Absorbance	Normalized	100%	dark	Raw 1	Native Wvl	Native Norm	Native 100%	Native dark	Native 1
908.10000	0.35271	0.44390	3595.82598	881.87120	2086.44483	906.26400	0.44258	3684.00000	880.00000	2121.00000
914.29435	0.34842	0.44831	3338.07467	866.26472	1974.44052	912.45437	0.44699	3404.00000	876.00000	2006.00000
920.48871	0.34157	0.45544	3265.72768	878.51909	1965.77120	918.64474	0.45265	3257.00000	860.00000	1945.00000
926.68306	0.33448	0.46294	3334.01990	918.74175	2036.81864	924.83511	0.46167	3324.00000	924.00000	2032.00000
932.87742	0.33173	0.46587	3389.36197	864.93184	2041.02087	931.02548	0.46452	3355.00000	875.00000	2027.00000
939.07177	0.32515	0.47299	3619.59224	884.95115	2178.43961	937.21585	0.47072	3537.00000	873.00000	2127.00000
945.26613	0.31964	0.47903	3856.44440	889.93616	2310.92468	943.40622	0.47760	3802.00000	900.00000	2286.00000
951.46048	0.31632	0.48270	4005.12223	859.91735	2378.13470	949.59659	0.48159	3955.00000	859.00000	2350.00000
957.65484	0.31344	0.48592	4215.51392	893.73656	2507.86018	955.78696	0.48514	4148.00000	885.00000	2468.00000
963.84919	0.31145	0.48814	4374.23623	878.43417	2584.81902	961.97733	0.48740	4344.00000	891.00000	2574.00000
970.04355	0.30707	0.49310	4523.41127	896.06510	2684.85925	968.16770	0.49107	4453.00000	871.00000	2630.00000
976.23790	0.30435	0.49619	4726.50938	925.04592	2811.10232	974.35807	0.49653	4693.00000	945.00000	2806.00000
982.43226	0.30537	0.49503	4835.26800	856.06452	2826.05990	980.54844	0.49439	4778.00000	854.00000	2794.00000
988.62661	0.30179	0.49913	5079.18703	905.14928	2988.45390	986.73881	0.49830	5013.00000	901.00000	2950.00000
994.82097	0.30161	0.49934	5288.13901	870.37131	3076.31779	992.92918	0.49942	5216.00000	881.00000	3046.00000
1001.01532	0.30077	0.50030	5547.24444	876.96250	3213.51713	999.11955	0.49967	5470.00000	867.00000	3167.00000
1007.20968	0.29895	0.50240	5821.73207	889.84005	3367.56749	1005.30992	0.50197	5729.00000	896.00000	3322.00000
1013.40403	0.29694	0.50473	6108.36987	875.33513	3516.63159	1011.50029	0.50358	6031.00000	870.00000	3469.00000
1019.59839	0.29359	0.50864	6349.51155	919.49996	3681.41061	1017.69066	0.50774	6269.00000	908.00000	3630.00000
1025.79274	0.29239	0.51005	6610.09178	908.88037	3816.74647	1023.88103	0.50971	6536.00000	921.00000	3783.00000
1031.98710	0.29084	0.51187	6863.27600	885.10537	3945.18972	1030.07140	0.51111	6776.00000	883.00000	3895.00000
1038.18145	0.28892	0.51414	7137.95533	879.30949	4097.05008	1036.26177	0.51361	7062.00000	892.00000	4061.00000
1044.37581	0.28761	0.51569	7415.45215	852.78191	4237.10323	1042.45214	0.51508	7313.00000	848.00000	4178.00000
1050.57016	0.28577	0.51788	7763.75520	889.74850	4449.62511	1048.64251	0.51726	7664.00000	884.00000	4391.00000
1056.76452	0.28471	0.51915	8043.98752	873.54577	4596.04055	1054.83288	0.51886	7958.00000	881.00000	4553.00000
1062.95887	0.28354	0.52055	8346.47029	875.55305	4764.60257	1061.02325	0.51992	8246.00000	868.00000	4704.00000
1069.15323	0.28197	0.52243	8651.05608	883.28349	4941.35412	1067.21362	0.52202	8564.00000	890.00000	4896.00000
1075.34758	0.28108	0.52350	8931.01237	859.29405	5084.89423	1073.40399	0.52307	8836.00000	860.00000	5032.00000
1081.54194	0.27987	0.52497	9243.78719	871.40916	5266.59209	1079.59436	0.52458	9149.00000	870.00000	5213.00000
1087.73629	0.27871	0.52637	9580.78777	901.76500	5470.22964	1085.78473	0.52582	9462.00000	883.00000	5394.00000
1093.93065	0.27759	0.52773	9940.76391	922.65990	5681.75948	1091.97510	0.52750	9841.00000	933.00000	5632.00000
1100.12500	0.27762	0.52769	10254.38783	869.25749	5821.70082	1098.16547	0.52774	10144.00000	878.00000	5768.00000
1106.31935	0.27739	0.52798	10641.04469	875.00467	6031.24609	1104.35584	0.52778	10519.00000	873.00000	5964.00000
1112.51371	0.27684	0.52864	11015.80766	872.41348	6234.58032	1110.54621	0.52848	10897.00000	874.00000	6171.00000
1118.70806	0.27687	0.52860	11401.60672	872.77123	6438.28386	1116.73658	0.52869	11276.00000	871.00000	6372.00000
1124.90242	0.27707	0.52836	11814.30888	885.70510	6659.92434	1122.92695	0.52838	11680.00000	881.00000	6587.00000
1131.09677	0.27737	0.52799	12236.17715	886.26842	6878.87549	1129.11732	0.52823	12103.00000	890.00000	6813.00000
1137.29113	0.27850	0.52662	12606.57558	854.95675	7043.59865	1135.30769	0.52713	12498.00000	867.00000	6998.00000
1143.48548	0.27971	0.52516	12995.31207	851.62722	7228.95371	1141.49806	0.52557	12851.00000	843.00000	7154.00000
1149.67984	0.28070	0.52396	13491.13514	894.93569	7494.87591	1147.68843	0.52438	13335.00000	884.00000	7413.00000
1155.87419	0.28240	0.52191	13953.07917	885.15852	7705.42941	1153.87880	0.52274	13805.00000	896.00000	7644.00000
1162.06855	0.28465	0.51922	14446.12872	862.12568	7915.25130	1160.06917	0.52001	14279.00000	862.00000	7839.00000
1168.26290	0.28600	0.51761	14959.02414	891.75197	8173.16903	1166.25954	0.51800	14800.00000	881.00000	8091.00000
1174.45726	0.28723	0.51615	15420.71473	898.79570	8394.21453	1172.44991	0.51677	15273.00000	903.00000	8329.00000
1180.65161	0.28901	0.51403	15876.41905	861.08105	8579.37279	1178.64028	0.51464	15728.00000	875.00000	8519.00000
1186.84597	0.28987	0.51302	16371.22020	852.06070	8813.66218	1184.83065	0.51319	16201.00000	846.00000	8726.00000
1193.04032	0.29002	0.51284	16894.18264	880.38932	9092.81577	1191.02102	0.51290	16730.00000	875.00000	9007.00000
1199.23468	0.28992	0.51296	17400.55626	883.09277	9355.86582	1197.21139	0.51282	17229.00000	882.00000	9265.00000
1205.42903	0.28916	0.51385	17922.85290	876.52702	9635.77402	1203.40176	0.51351	17758.00000	882.00000	9548.00000
1211.62339	0.28784	0.51542	18412.23826	867.41129	9910.29137	1209.59213	0.51478	18250.00000	866.00000	9815.00000
1217.81774	0.28574	0.51791	18946.64823	877.09601	10235.58427	1215.78250	0.51702	18763.00000	876.00000	10124.00000
1224.01210	0.28330	0.52084	19522.38589	879.59709	10589.46868	1221.97287	0.51986	19334.00000	877.00000	10472.00000
1230.20645	0.28113	0.52344	20046.82356	877.27220	10911.30369	1228.16324	0.52268	19884.00000	882.00000	10814.00000
1236.40081	0.27927	0.52569	20578.92550	894.33634	11242.28529	1234.35361	0.52489	20387.00000	878.00000	11118.00000
1242.59516	0.27746	0.52788	21116.97255	904.50586	11574.30708	1240.54398	0.52727	20962.00000	919.00000	11487.00000
1248.78952	0.27632	0.52927	21555.61107	852.78714	11810.11820	1246.73435	0.52884	21399.00000	858.00000	11721.00000
1254.98387	0.27510	0.53077	22112.97196	897.03001	12157.81316	1252.92472	0.53021	21917.00000	878.00000	12033.00000
1261.17823	0.27399	0.53213	22669.33634	902.45329	12485.16957	1259.11509	0.53181	22498.00000	915.00000	12393.00000
1267.37258	0.27363	0.53256	23144.86310	840.51764	12718.97244	1265.30546	0.53245	22985.00000	857.00000	12639.00000
1273.56694	0.27280	0.53359	23720.39347	860.92978	13058.46721	1271.49583	0.53307	23506.00000	841.00000	12923.00000
1279.76129	0.27136	0.53535	24372.77955	913.59084	13472.35470	1277.68620	0.53482	24166.00000	906.00000	13346.00000
1285.95565	0.27049	0.53643	24945.52650	893.87771	13795.84217	1283.87657	0.53612	24754.00000	903.00000	13690.00000
1292.15000	0.26974	0.53735	25532.41484	877.59600	14125.79525	1290.06694	0.53701	25332.00000	880.00000	14011.00000
1298.34435	0.26890	0.53839	26175.67024	884.75253	14501.28195	1296.25731	0.53806	25949.00000	881.00000	14369.00000
1304.53871	0.26856	0.53881	26805.92834	868.00311	14843.68135	1302.44769	0.53881	26610.00000	881.00000	14744.00000
1310.73306	0.26862	0.53874	27432.03993	867.23944	15178.72075	1308.63806	0.53870	27196.00000	853.00000	15044.00000
1316.92742	0.26872	0.53862	28161.82657	892.73544	15580.36666	1314.82843	0.53878	27925.00000	899.00000	15460.00000
1323.12177	0.26963	0.53749	28842.74169	862.95220	15901.80620	1321.01880	0.53796	28606.00000	864.00000	15788.00000
1329.31613	0.27115	0.53561	29519.54369	871.94640	16215.80695	1327.20917	0.53634	29300.00000	874.00000	16120.00000
1335.51048	0.27330	0.53296	30183.25265	863.66515	16489.95133	1333.39954	0.53394	29944.00000	862.00000	16390.00000
1341.70484	0.27604	0.52961	30926.51890	893.32929	16799.28448	1339.58991	0.53085	30673.00000	881.00000	16696.00000
1347.89919	0.27945	0.52548	31587.63481	894.88004	17023.23508	1345.78028	0.52697	31380.00000	904.00000	16964.00000
1354.09355	0.28311	0.52106	32227.78710	859.30420	17204.23521	1351.97065	0.52254	31988.00000	867.00000	17129.00000
1360.28790	0.28653	0.51697	32929.95072	867.11433	17442.82747	1358.16102	0.51836	32704.00000	861.00000	17367.00000
1366.48226	0.29017	0.51266	33569.06337	866.55753	17631.84320	1364.35139	0.51423	33341.00000	873.00000	17569.00000
1372.67661	0.29431	0.50779	34261.83351	843.87902	17813.25671	1370.54176	0.50949	34024.00000	848.00000	17751.00000
1378.87097	0.29866	0.50274	34838.67465	870.52277	17947.62218	1376.73213	0.50451	34668.00000	855.00000	17914.00000
1385.06532	0.30349	0.49717	35121.03064	877.10458	17902.26915	1382.92250	0.49920	35059.00000	888.00000	17946.00000
1391.25968	0.30907	0.49082	35289.43299	872.38486	17765.01914	1389.11287	0.49310	35214.00000	858.00000	17799.00000
1397.45403	0.31629	0.48274	35460.60298	899.47130	17583.56210	1395.30324	0.48591	35427.00000	906.00000	17680.00000
1403.64839	0.32658	0.47144	35666.10671	869.36576	17273.78869	1401.49361	0.47570	35545.00000	870.00000	17365.00000
1409.84274	0.33957	0.45754	36323.03255	883.09719	17098.30420	1407.68398	0.46262	36050.00000	883.00000	17152.00000
1416.03710	0.35387	0.44272	37284.68636	884.03189	16999.42030	1413.87435	0.44783	36926.00000	879.00000	17022.00000
1422.23145	0.36751	0.42903	38329.42739	892.53935	16954.27891	1420.06472	0.43363	37970.00000	895.00000	16972.00000
1428.42581	0.37948	0.41737	39434.74114	878.71439	16970.70569	1426.25509	0.42117	39022.00000	881.00000	16945.00000
1434.62016	0.38915	0.40818	40575.07439	880.06733	17082.69723	1432.44546	0.41113	40203.00000	880.00000	17047.00000
1440.81452	0.39629	0.40153	41493.68414	879.47622	17187.13946	1438.63583	0.40355	41184.00000	879.00000	17144.00000
1447.00887	0.40082	0.39736	42510.04768	905.41306	17437.24527	1444.82620	0.39860	42113.00000	891.00000	17322.00000
1453.20323	0.40398	0.39447	43543.72896	892.86717	17717.55062	1451.01657	0.39544	43229.00000	914.00000	17647.00000
1459.39758	0.40610	0.39255	44405.02794	864.61268	17956.50062	1457.20694	0.39303	44070.00000	855.00000	17840.00000
1465.59194	0.40689	0.39184	45481.34063	906.97918	18372.93483	1463.39731	0.39205	45094.00000	903.00000	18228.00000
1471.78629	0.40730	0.39147	46480.51435	890.87025	18737.99973	1469.58768	0.39155	46150.00000	894.00000	18614.00000
1477.98065	0.40716	0.39160	47320.91755	868.50781	19059.17946	1475.77805	0.39150	47029.00000	883.00000	18949.00000
1484.17500	0.40646	0.39223	48225.65661	857.63729	19436.67933	1481.96842	0.39195	47881.00000	849.00000	19283.00000
1490.36935	0.40541	0.39318	49092.30051	893.89890	19844.43872	1488.15879	0.39283	48824.00000	887.00000	19718.00000
1496.56371	0.40420	0.39427	49778.04514	887.35808	20163.60814	1494.34916	0.39385	49521.00000	891.00000	20044.00000
1502.75806	0.40255	0.39578	50469.48096	863.36996	20496.44247	1500.53953	0.39517	50241.00000	875.00000	20383.00000
1508.95242	0.40026	0.39787	51158.04064	897.54966	20894.89866	1506.72990	0.39706	50884.00000	867.00000	20727.00000
1515.14677	0.39800	0.39995	51878.91086	902.58342	21290.31867	1512.92027	0.39927	51650.00000	933.00000	21183.00000
1521.34113	0.39571	0.40206	52577.57434	850.45197	21647.83003	1519.11064	0.40119	52288.00000	838.00000	21479.00000
1527.53548	0.39326	0.40434	53324.26188	911.75147	22103.91909	1525.30101	0.40363	53098.00000	907.00000	21973.00000
1533.72984	0.39148	0.40599	53919.19306	885.74627	22416.87050	1531.49138	0.40538	53680.00000	890.00000	22290.00000
1539.92419	0.38991	0.40746	54593.00479	874.24673	22762.52587	1537.68175	0.40701	54367.00000	884.00000	22652.00000
1546.11855	0.38870	0.40860	55208.54831	866.87961	23071.09545	1543.87212	0.40816	54973.00000	860.00000	22947.00000
1552.31290	0.38752	0.40971	55811.51925	888.84465	23391.16585	1550.06249	0.40936	55614.00000	887.00000	23290.00000
1558.50726	0.38658	0.41060	56431.29012	888.46797	23694.25934	1556.25286	0.41026	56172.00000	885.00000	23567.00000
1564.70161	0.38581	0.41133	57011.94896	890.80855	23975.06204	1562.44323	0.41113	56858.00000	895.00000	23903.00000
1570.89597	0.38526	0.41185	57413.89650	869.93991	24157.71651	1568.63360	0.41162	57231.00000	876.00000	24073.00000
1577.09032	0.38440	0.41266	57979.03512	879.44141	24442.35410	1574.82397	0.41235	57786.00000	871.00000	24340.00000
1583.28468	0.38350	0.41352	58450.11400	894.72676	24695.23790	1581.01434	0.41321	58279.00000	894.00000	24606.00000
1589.47903	0.38237	0.41461	58825.25008	895.18773	24913.25390	1587.20471	0.41415	58712.00000	892.00000	24838.00000
1595.67339	0.38077	0.41613	59146.72764	885.70009	25130.00118	1593.39508	0.41554	59009.00000	896.00000	25044.00000
1601.86774	0.37880	0.41802	59574.82387	893.37146	25423.54854	1599.58545	0.41727	59419.00000	877.00000	25305.00000
1608.06210	0.37661	0.42013	59920.72690	909.46488	25702.06876	1605.77582	0.41937	59809.00000	920.00000	25616.00000
1614.25645	0.37435	0.42233	60220.95853	887.30010	25945.70627	1611.96619	0.42148	60102.00000	882.00000	25842.00000
1620.45081	0.37228	0.42434	60438.83040	897.12192	26163.10297	1618.15656	0.42370	60391.00000	905.00000	26109.00000
1626.64516	0.37052	0.42607	60579.30309	884.35356	26318.54107	1624.34693	0.42537	60502.00000	878.00000	26240.00000
1632.83952	0.36873	0.42783	60848.95373	899.57786	26547.48486	1630.53730	0.42726	60754.00000	903.00000	26475.00000
1639.03387	0.36752	0.42902	60928.35809	870.27700	26636.25476	1636.72767	0.42860	60938.00000	879.00000	26620.00000
1645.22823	0.36650	0.43004	60778.06969	873.98452	26634.97654	1642.91804	0.42969	60849.00000	868.00000	26641.00000
1651.42258	0.36585	0.43068	59777.88214	914.49031	26265.34305	1649.10841	0.43050	60357.00000	896.00000	26494.00000
1657.61694	0.36612	0.43041	57642.70006	920.63108	25334.55268	1655.29878	0.43066	58452.00000	931.00000	25703.00000
1663.81129	0.36705	0.42948	56689.89176	898.36344	24859.71162	1661.48915	0.42980	56762.00000	897.00000	24908.00000
1670.00565	0.36768	0.42887	55553.85124	917.06266	24349.03740	1667.67952	0.42907	56404.00000	914.00000	24723.00000
1676.20000	0.36809	0.42846	52318.47966	879.24303	22919.27852	1673.86989	0.42859	53497.00000	901.00000	23443.00000
0.00000	0.00000	0.00000	0.00000	0.00000	0.00000	1680.06026	0.42859	50136.00000	860.00000	21979.00000
0.00000	0.00000	0.00000	0.00000	0.00000	0.00000	1686.25063	0.42973	46019.00000	923.00000	20302.00000
0.00000	0.00000	0.00000	0.00000	0.00000	0.00000	1692.44100	0.42973	46019.00000	923.00000	20302.00000
