'File ÂóÆ¬_4_2016Ò»ÔÂ28_1126.xls
'Part ID ÂóÆ¬_4
'Scan Created 2016/1/28 11:26:51
'Instrument S1-00205
'Version 1.5.7
'Integration Time 10100 µs
'Number of Scans 50
'Units Absorbance
'Thermistor 49.04
Wavelength	Absorbance	Normalized	100%	dark	Raw 1	Native Wvl	Native Norm	Native 100%	Native dark	Native 1
908.10000	0.26375	0.54481	3595.82598	881.87120	2359.62495	906.26400	0.53780	3684.00000	880.00000	2388.00000
914.29435	0.24614	0.56736	3338.07467	866.26472	2268.94363	912.45437	0.56092	3404.00000	876.00000	2294.00000
920.48871	0.22785	0.59176	3265.72768	878.51909	2291.16836	918.64474	0.58365	3257.00000	860.00000	2259.00000
926.68306	0.20941	0.61744	3334.01990	918.74175	2409.93275	924.83511	0.61083	3324.00000	924.00000	2390.00000
932.87742	0.19501	0.63824	3389.36197	864.93184	2476.21903	931.02548	0.63145	3355.00000	875.00000	2441.00000
939.07177	0.17891	0.66235	3619.59224	884.95115	2696.29767	937.21585	0.65541	3537.00000	873.00000	2619.00000
945.26613	0.16708	0.68064	3856.44440	889.93616	2908.96912	943.40622	0.67609	3802.00000	900.00000	2862.00000
951.46048	0.15989	0.69200	4005.12223	859.91735	3036.45974	949.59659	0.68895	3955.00000	859.00000	2992.00000
957.65484	0.15599	0.69825	4215.51392	893.73656	3213.11891	955.78696	0.69721	4148.00000	885.00000	3160.00000
963.84919	0.15440	0.70080	4374.23623	878.43417	3328.30833	961.97733	0.69968	4344.00000	891.00000	3307.00000
970.04355	0.15171	0.70516	4523.41127	896.06510	3453.99011	968.16770	0.70408	4453.00000	871.00000	3393.00000
976.23790	0.15296	0.70314	4726.50938	925.04592	3597.85674	974.35807	0.70491	4693.00000	945.00000	3587.00000
982.43226	0.15554	0.69897	4835.26800	856.06452	3637.57736	980.54844	0.69903	4778.00000	854.00000	3597.00000
988.62661	0.15425	0.70105	5079.18703	905.14928	3831.27709	986.73881	0.70088	5013.00000	901.00000	3783.00000
994.82097	0.15535	0.69928	5288.13901	870.37131	3959.66073	992.92918	0.69988	5216.00000	881.00000	3915.00000
1001.01532	0.15618	0.69794	5547.24444	876.96250	4136.50138	999.11955	0.69824	5470.00000	867.00000	4081.00000
1007.20968	0.15593	0.69834	5821.73207	889.84005	4334.02358	1005.30992	0.69791	5729.00000	896.00000	4269.00000
1013.40403	0.15321	0.70274	6108.36987	875.33513	4552.73654	1011.50029	0.70083	6031.00000	870.00000	4487.00000
1019.59839	0.14896	0.70964	6349.51155	919.49996	4772.93509	1017.69066	0.70770	6269.00000	908.00000	4702.00000
1025.79274	0.14659	0.71353	6610.09178	908.88037	4976.77496	1023.88103	0.71273	6536.00000	921.00000	4923.00000
1031.98710	0.14476	0.71653	6863.27600	885.10537	5168.78184	1030.07140	0.71526	6776.00000	883.00000	5098.00000
1038.18145	0.14237	0.72050	7137.95533	879.30949	5388.53280	1036.26177	0.71961	7062.00000	892.00000	5332.00000
1044.37581	0.14082	0.72307	7415.45215	852.78191	5598.15870	1042.45214	0.72204	7313.00000	848.00000	5516.00000
1050.57016	0.13872	0.72657	7763.75520	889.74850	5884.16920	1048.64251	0.72566	7664.00000	884.00000	5804.00000
1056.76452	0.13736	0.72885	8043.98752	873.54577	6099.72201	1054.83288	0.72813	7958.00000	881.00000	6034.00000
1062.95887	0.13588	0.73134	8346.47029	875.55305	6339.35811	1061.02325	0.73055	8246.00000	868.00000	6258.00000
1069.15323	0.13468	0.73337	8651.05608	883.28349	6579.91588	1067.21362	0.73286	8564.00000	890.00000	6514.00000
1075.34758	0.13364	0.73512	8931.01237	859.29405	6793.05853	1073.40399	0.73445	8836.00000	860.00000	6718.00000
1081.54194	0.13255	0.73696	9243.78719	871.40916	7041.49057	1079.59436	0.73656	9149.00000	870.00000	6968.00000
1087.73629	0.13176	0.73831	9580.78777	901.76500	7309.68105	1085.78473	0.73773	9462.00000	883.00000	7212.00000
1093.93065	0.13105	0.73952	9940.76391	922.65990	7591.68369	1091.97510	0.73945	9841.00000	933.00000	7520.00000
1100.12500	0.13160	0.73859	10254.38783	869.25749	7801.04764	1098.16547	0.73894	10144.00000	878.00000	7725.00000
1106.31935	0.13214	0.73767	10641.04469	875.00467	8079.07309	1104.35584	0.73792	10519.00000	873.00000	7991.00000
1112.51371	0.13240	0.73723	11015.80766	872.41348	8350.45164	1110.54621	0.73730	10897.00000	874.00000	8264.00000
1118.70806	0.13302	0.73617	11401.60672	872.77123	8623.72775	1116.73658	0.73676	11276.00000	871.00000	8537.00000
1124.90242	0.13481	0.73314	11814.30888	885.70510	8898.01036	1122.92695	0.73423	11680.00000	881.00000	8810.00000
1131.09677	0.13812	0.72758	12236.17715	886.26842	9144.13309	1129.11732	0.72987	12103.00000	890.00000	9074.00000
1137.29113	0.14412	0.71759	12606.57558	854.95675	9287.92702	1135.30769	0.72118	12498.00000	867.00000	9255.00000
1143.48548	0.15193	0.70480	12995.31207	851.62722	9410.37272	1141.49806	0.70911	12851.00000	843.00000	9358.00000
1149.67984	0.16050	0.69104	13491.13514	894.93569	9599.50021	1147.68843	0.69545	13335.00000	884.00000	9543.00000
1155.87419	0.16966	0.67661	13953.07917	885.15852	9726.94378	1153.87880	0.68146	13805.00000	896.00000	9693.00000
1162.06855	0.17887	0.66242	14446.12872	862.12568	9860.48300	1160.06917	0.66662	14279.00000	862.00000	9806.00000
1168.26290	0.18554	0.65232	14959.02414	891.75197	10068.27773	1166.25954	0.65515	14800.00000	881.00000	10000.00000
1174.45726	0.19158	0.64331	15420.71473	898.79570	10240.79989	1172.44991	0.64656	15273.00000	903.00000	10194.00000
1180.65161	0.19889	0.63257	15876.41905	861.08105	10359.40202	1178.64028	0.63597	15728.00000	875.00000	10321.00000
1186.84597	0.20499	0.62375	16371.22020	852.06070	10532.11321	1184.83065	0.62631	16201.00000	846.00000	10463.00000
1193.04032	0.20947	0.61735	16894.18264	880.38932	10766.50678	1191.02102	0.61924	16730.00000	875.00000	10693.00000
1199.23468	0.21227	0.61339	17400.55626	883.09277	11014.68024	1197.21139	0.61430	17229.00000	882.00000	10924.00000
1205.42903	0.21248	0.61308	17922.85290	876.52702	11327.33428	1203.40176	0.61276	17758.00000	882.00000	11223.00000
1211.62339	0.20956	0.61721	18412.23826	867.41129	11696.31684	1209.59213	0.61528	18250.00000	866.00000	11562.00000
1217.81774	0.20349	0.62591	18946.64823	877.09601	12187.02196	1215.78250	0.62269	18763.00000	876.00000	12014.00000
1224.01210	0.19623	0.63646	19522.38589	879.59709	12745.02734	1221.97287	0.63298	19334.00000	877.00000	12560.00000
1230.20645	0.18977	0.64600	20046.82356	877.27220	13260.74192	1228.16324	0.64309	19884.00000	882.00000	13102.00000
1236.40081	0.18463	0.65368	20578.92550	894.33634	13761.90107	1234.35361	0.65129	20387.00000	878.00000	13584.00000
1242.59516	0.18077	0.65952	21116.97255	904.50586	14234.98293	1240.54398	0.65789	20962.00000	919.00000	14105.00000
1248.78952	0.17839	0.66315	21555.61107	852.78714	14581.93664	1246.73435	0.66209	21399.00000	858.00000	14458.00000
1254.98387	0.17629	0.66637	22112.97196	897.03001	15034.65669	1252.92472	0.66524	21917.00000	878.00000	14874.00000
1261.17823	0.17453	0.66907	22669.33634	902.45329	15465.97511	1259.11509	0.66840	22498.00000	915.00000	15341.00000
1267.37258	0.17366	0.67041	23144.86310	840.51764	15793.46023	1265.30546	0.66997	22985.00000	857.00000	15682.00000
1273.56694	0.17220	0.67267	23720.39347	860.92978	16237.81422	1271.49583	0.67170	23506.00000	841.00000	16065.00000
1279.76129	0.17023	0.67573	24372.77955	913.59084	16765.60230	1277.68620	0.67481	24166.00000	906.00000	16602.00000
1285.95565	0.16881	0.67795	24945.52650	893.87771	17199.60623	1283.87657	0.67725	24754.00000	903.00000	17056.00000
1292.15000	0.16764	0.67976	25532.41484	877.59600	17636.92656	1290.06694	0.67921	25332.00000	880.00000	17488.00000
1298.34435	0.16689	0.68094	26175.67024	884.75253	18106.27393	1296.25731	0.68063	25949.00000	881.00000	17943.00000
1304.53871	0.16705	0.68069	26805.92834	868.00311	18523.69959	1302.44769	0.68102	26610.00000	881.00000	18403.00000
1310.73306	0.16825	0.67882	27432.03993	867.23944	18900.02662	1308.63806	0.67954	27196.00000	853.00000	18754.00000
1316.92742	0.17039	0.67547	28161.82657	892.73544	19312.08858	1314.82843	0.67690	27925.00000	899.00000	19193.00000
1323.12177	0.17411	0.66971	28842.74169	862.95220	19601.42676	1321.01880	0.67187	28606.00000	864.00000	19503.00000
1329.31613	0.17914	0.66201	29519.54369	871.94640	19836.90643	1327.20917	0.66488	29300.00000	874.00000	19774.00000
1335.51048	0.18552	0.65235	30183.25265	863.66515	19990.15390	1333.39954	0.65580	29944.00000	862.00000	19934.00000
1341.70484	0.19292	0.64133	30926.51890	893.32929	20154.60814	1339.58991	0.64524	30673.00000	881.00000	20104.00000
1347.89919	0.20115	0.62929	31587.63481	894.88004	20209.68961	1345.78028	0.63348	31380.00000	904.00000	20210.00000
1354.09355	0.20965	0.61709	32227.78710	859.30420	20216.30145	1351.97065	0.62122	31988.00000	867.00000	20200.00000
1360.28790	0.21762	0.60587	32929.95072	867.11433	20293.33407	1358.16102	0.60955	32704.00000	861.00000	20271.00000
1366.48226	0.22535	0.59518	33569.06337	866.55753	20330.15130	1364.35139	0.59896	33341.00000	873.00000	20320.00000
1372.67661	0.23383	0.58368	34261.83351	843.87902	20349.26206	1370.54176	0.58768	34024.00000	848.00000	20345.00000
1378.87097	0.24276	0.57179	34838.67465	870.52277	20293.35133	1376.73213	0.57596	34668.00000	855.00000	20330.00000
1385.06532	0.25276	0.55878	35121.03064	877.10458	20011.85570	1382.92250	0.56349	35059.00000	888.00000	20143.00000
1391.25968	0.26439	0.54402	35289.43299	872.38486	19595.75423	1389.11287	0.54931	35214.00000	858.00000	19730.00000
1397.45403	0.27865	0.52644	35460.60298	899.47130	19094.10219	1395.30324	0.53307	35427.00000	906.00000	19308.00000
1403.64839	0.29730	0.50432	35666.10671	869.36576	18417.93006	1401.49361	0.51247	35545.00000	870.00000	18640.00000
1409.84274	0.31963	0.47904	36323.03255	883.09719	17860.14519	1407.68398	0.48807	36050.00000	883.00000	18047.00000
1416.03710	0.34351	0.45341	37284.68636	884.03189	17388.49299	1413.87435	0.46217	36926.00000	879.00000	17539.00000
1422.23145	0.36628	0.43025	38329.42739	892.53935	16999.98814	1420.06472	0.43798	37970.00000	895.00000	17133.00000
1428.42581	0.38596	0.41119	39434.74114	878.71439	16732.14857	1426.25509	0.41729	39022.00000	881.00000	16797.00000
1434.62016	0.40120	0.39701	40575.07439	880.06733	16639.46731	1432.44546	0.40147	40203.00000	880.00000	16667.00000
1440.81452	0.41198	0.38728	41493.68414	879.47622	16608.42639	1438.63583	0.39020	41184.00000	879.00000	16606.00000
1447.00887	0.41854	0.38147	42510.04768	905.41306	16776.13945	1444.82620	0.38314	42113.00000	891.00000	16685.00000
1453.20323	0.42276	0.37778	43543.72896	892.86717	17005.64128	1451.01657	0.37899	43229.00000	914.00000	16951.00000
1459.39758	0.42542	0.37547	44405.02794	864.61268	17212.95010	1457.20694	0.37603	44070.00000	855.00000	17105.00000
1465.59194	0.42610	0.37489	45481.34063	906.97918	17617.22473	1463.39731	0.37501	45094.00000	903.00000	17475.00000
1471.78629	0.42596	0.37501	46480.51435	890.87025	17987.35378	1469.58768	0.37487	46150.00000	894.00000	17859.00000
1477.98065	0.42488	0.37594	47320.91755	868.50781	18331.88832	1475.77805	0.37553	47029.00000	883.00000	18212.00000
1484.17500	0.42282	0.37773	48225.65661	857.63729	18749.87424	1481.96842	0.37698	47881.00000	849.00000	18579.00000
1490.36935	0.42011	0.38010	49092.30051	893.89890	19213.87735	1488.15879	0.37925	48824.00000	887.00000	19067.00000
1496.56371	0.41727	0.38259	49778.04514	887.35808	19592.40009	1494.34916	0.38166	49521.00000	891.00000	19451.00000
1502.75806	0.41400	0.38547	50469.48096	863.36996	19985.19698	1500.53953	0.38439	50241.00000	875.00000	19851.00000
1508.95242	0.41047	0.38863	51158.04064	897.54966	20430.14349	1506.72990	0.38749	50884.00000	867.00000	20248.00000
1515.14677	0.40727	0.39149	51878.91086	902.58342	20859.45892	1512.92027	0.39054	51650.00000	933.00000	20740.00000
1521.34113	0.40420	0.39428	52577.57434	850.45197	21245.50981	1519.11064	0.39320	52288.00000	838.00000	21068.00000
1527.53548	0.40119	0.39702	53324.26188	911.75147	21720.33583	1525.30101	0.39616	53098.00000	907.00000	21583.00000
1533.72984	0.39902	0.39901	53919.19306	885.74627	22046.48627	1531.49138	0.39830	53680.00000	890.00000	21916.00000
1539.92419	0.39719	0.40069	54593.00479	874.24673	22398.72494	1537.68175	0.40016	54367.00000	884.00000	22286.00000
1546.11855	0.39586	0.40192	55208.54831	866.87961	22707.95106	1543.87212	0.40147	54973.00000	860.00000	22585.00000
1552.31290	0.39465	0.40304	55811.51925	888.84465	23024.90607	1550.06249	0.40267	55614.00000	887.00000	22924.00000
1558.50726	0.39368	0.40394	56431.29012	888.46797	23324.74449	1556.25286	0.40362	56172.00000	885.00000	23200.00000
1564.70161	0.39290	0.40467	57011.94896	890.80855	23601.17361	1562.44323	0.40445	56858.00000	895.00000	23529.00000
1570.89597	0.39206	0.40546	57413.89650	869.93991	23796.04535	1568.63360	0.40509	57231.00000	876.00000	23705.00000
1577.09032	0.39061	0.40681	57979.03512	879.44141	24108.10664	1574.82397	0.40627	57786.00000	871.00000	23994.00000
1583.28468	0.38875	0.40855	58450.11400	894.72676	24409.20161	1581.01434	0.40786	58279.00000	894.00000	24299.00000
1589.47903	0.38623	0.41093	58825.25008	895.18773	24700.29944	1587.20471	0.40996	58712.00000	892.00000	24596.00000
1595.67339	0.38294	0.41406	59146.72764	885.70009	25009.30869	1593.39508	0.41283	59009.00000	896.00000	24887.00000
1601.86774	0.37895	0.41788	59574.82387	893.37146	25415.15891	1599.58545	0.41638	59419.00000	877.00000	25253.00000
1608.06210	0.37448	0.42220	59920.72690	909.46488	25824.27717	1605.77582	0.42059	59809.00000	920.00000	25688.00000
1614.25645	0.36971	0.42687	60220.95853	887.30010	26214.80548	1611.96619	0.42508	60102.00000	882.00000	26055.00000
1620.45081	0.36491	0.43161	60438.83040	897.12192	26595.84408	1618.15656	0.42992	60391.00000	905.00000	26479.00000
1626.64516	0.36024	0.43627	60579.30309	884.35356	26927.53724	1624.34693	0.43447	60502.00000	878.00000	26783.00000
1632.83952	0.35552	0.44104	60848.95373	899.57786	27339.82711	1630.53730	0.43934	60754.00000	903.00000	27198.00000
1639.03387	0.35134	0.44531	60928.35809	870.27700	27614.69590	1636.72767	0.44375	60938.00000	879.00000	27530.00000
1645.22823	0.34734	0.44943	60778.06969	873.98452	27796.78010	1642.91804	0.44791	60849.00000	868.00000	27734.00000
1651.42258	0.34359	0.45333	59777.88214	914.49031	27598.46897	1649.10841	0.45191	60357.00000	896.00000	27767.00000
1657.61694	0.34063	0.45642	57642.70006	920.63108	26809.73848	1655.29878	0.45542	58452.00000	931.00000	27127.00000
1663.81129	0.33817	0.45902	56689.89176	898.36344	26508.39268	1661.48915	0.45798	56762.00000	897.00000	26482.00000
1670.00565	0.33576	0.46157	55553.85124	917.06266	26135.18797	1667.67952	0.46073	56404.00000	914.00000	26480.00000
1676.20000	0.33423	0.46320	52318.47966	879.24303	24706.35475	1673.86989	0.46266	53497.00000	901.00000	25235.00000
0.00000	0.00000	0.00000	0.00000	0.00000	0.00000	1680.06026	0.46398	50136.00000	860.00000	23723.00000
0.00000	0.00000	0.00000	0.00000	0.00000	0.00000	1686.25063	0.46485	46019.00000	923.00000	21886.00000
0.00000	0.00000	0.00000	0.00000	0.00000	0.00000	1692.44100	0.46485	46019.00000	923.00000	21886.00000
