'File ÂóÆ¬_2_2016Ò»ÔÂ28_1126.xls
'Part ID ÂóÆ¬_2
'Scan Created 2016/1/28 11:26:41
'Instrument S1-00205
'Version 1.5.7
'Integration Time 10100 µs
'Number of Scans 50
'Units Absorbance
'Thermistor 49.04
Wavelength	Absorbance	Normalized	100%	dark	Raw 1	Native Wvl	Native Norm	Native 100%	Native dark	Native 1
908.10000	0.27946	0.52546	3595.82598	881.87120	2306.98966	906.26400	0.51783	3684.00000	880.00000	2332.00000
914.29435	0.26077	0.54857	3338.07467	866.26472	2222.53657	912.45437	0.54233	3404.00000	876.00000	2247.00000
920.48871	0.24179	0.57307	3265.72768	878.51909	2246.54038	918.64474	0.56446	3257.00000	860.00000	2213.00000
926.68306	0.22150	0.60049	3334.01990	918.74175	2368.98625	924.83511	0.59375	3324.00000	924.00000	2349.00000
932.87742	0.20692	0.62098	3389.36197	864.93184	2432.65659	931.02548	0.61411	3355.00000	875.00000	2398.00000
939.07177	0.18965	0.64617	3619.59224	884.95115	2652.04350	937.21585	0.63889	3537.00000	873.00000	2575.00000
945.26613	0.17692	0.66539	3856.44440	889.93616	2863.74977	943.40622	0.66058	3802.00000	900.00000	2817.00000
951.46048	0.16932	0.67715	4005.12223	859.91735	2989.73320	949.59659	0.67410	3955.00000	859.00000	2946.00000
957.65484	0.16545	0.68321	4215.51392	893.73656	3163.14034	955.78696	0.68219	4148.00000	885.00000	3111.00000
963.84919	0.16387	0.68570	4374.23623	878.43417	3275.51797	961.97733	0.68462	4344.00000	891.00000	3255.00000
970.04355	0.16138	0.68963	4523.41127	896.06510	3397.65864	968.16770	0.68872	4453.00000	871.00000	3338.00000
976.23790	0.16272	0.68751	4726.50938	925.04592	3538.44650	974.35807	0.68917	4693.00000	945.00000	3528.00000
982.43226	0.16516	0.68366	4835.26800	856.06452	3576.62900	980.54844	0.68374	4778.00000	854.00000	3537.00000
988.62661	0.16436	0.68493	5079.18703	905.14928	3763.94362	986.73881	0.68507	5013.00000	901.00000	3718.00000
994.82097	0.16575	0.68274	5288.13901	870.37131	3886.60606	992.92918	0.68328	5216.00000	881.00000	3843.00000
1001.01532	0.16622	0.68199	5547.24444	876.96250	4062.03568	999.11955	0.68216	5470.00000	867.00000	4007.00000
1007.20968	0.16601	0.68232	5821.73207	889.84005	4254.97672	1005.30992	0.68198	5729.00000	896.00000	4192.00000
1013.40403	0.16342	0.68641	6108.36987	875.33513	4467.28291	1011.50029	0.68456	6031.00000	870.00000	4403.00000
1019.59839	0.15891	0.69357	6349.51155	919.49996	4685.65145	1017.69066	0.69148	6269.00000	908.00000	4615.00000
1025.79274	0.15616	0.69798	6610.09178	908.88037	4888.11857	1023.88103	0.69706	6536.00000	921.00000	4835.00000
1031.98710	0.15423	0.70109	6863.27600	885.10537	5076.44006	1030.07140	0.69981	6776.00000	883.00000	5007.00000
1038.18145	0.15168	0.70521	7137.95533	879.30949	5292.85967	1036.26177	0.70421	7062.00000	892.00000	5237.00000
1044.37581	0.14989	0.70813	7415.45215	852.78191	5500.06900	1042.45214	0.70704	7313.00000	848.00000	5419.00000
1050.57016	0.14769	0.71173	7763.75520	889.74850	5782.11736	1048.64251	0.71077	7664.00000	884.00000	5703.00000
1056.76452	0.14618	0.71421	8043.98752	873.54577	5994.74097	1054.83288	0.71344	7958.00000	881.00000	5930.00000
1062.95887	0.14452	0.71694	8346.47029	875.55305	6231.74863	1061.02325	0.71605	8246.00000	868.00000	6151.00000
1069.15323	0.14315	0.71920	8651.05608	883.28349	6469.84582	1067.21362	0.71866	8564.00000	890.00000	6405.00000
1075.34758	0.14209	0.72096	8931.01237	859.29405	6678.77945	1073.40399	0.72029	8836.00000	860.00000	6605.00000
1081.54194	0.14096	0.72283	9243.78719	871.40916	6923.14138	1079.59436	0.72243	9149.00000	870.00000	6851.00000
1087.73629	0.14009	0.72428	9580.78777	901.76500	7187.86959	1085.78473	0.72363	9462.00000	883.00000	7091.00000
1093.93065	0.13917	0.72582	9940.76391	922.65990	7468.10784	1091.97510	0.72564	9841.00000	933.00000	7397.00000
1100.12500	0.13969	0.72496	10254.38783	869.25749	7673.05858	1098.16547	0.72534	10144.00000	878.00000	7599.00000
1106.31935	0.14022	0.72408	10641.04469	875.00467	7946.37930	1104.35584	0.72424	10519.00000	873.00000	7859.00000
1112.51371	0.14037	0.72383	11015.80766	872.41348	8214.49101	1110.54621	0.72393	10897.00000	874.00000	8130.00000
1118.70806	0.14120	0.72243	11401.60672	872.77123	8479.09918	1116.73658	0.72311	11276.00000	871.00000	8395.00000
1124.90242	0.14318	0.71915	11814.30888	885.70510	8745.13263	1122.92695	0.72034	11680.00000	881.00000	8660.00000
1131.09677	0.14682	0.71316	12236.17715	886.26842	8980.42653	1129.11732	0.71560	12103.00000	890.00000	8914.00000
1137.29113	0.15328	0.70261	12606.57558	854.95675	9111.91097	1135.30769	0.70639	12498.00000	867.00000	9083.00000
1143.48548	0.16178	0.68900	12995.31207	851.62722	9218.43223	1141.49806	0.69362	12851.00000	843.00000	9172.00000
1149.67984	0.17112	0.67434	13491.13514	894.93569	9389.17779	1147.68843	0.67898	13335.00000	884.00000	9338.00000
1155.87419	0.18106	0.65909	13953.07917	885.15852	9497.84986	1153.87880	0.66427	13805.00000	896.00000	9471.00000
1162.06855	0.19095	0.64425	14446.12872	862.12568	9613.66072	1160.06917	0.64851	14279.00000	862.00000	9563.00000
1168.26290	0.19803	0.63383	14959.02414	891.75197	9808.11103	1166.25954	0.63690	14800.00000	881.00000	9746.00000
1174.45726	0.20480	0.62402	15420.71473	898.79570	9960.68655	1172.44991	0.62742	15273.00000	903.00000	9919.00000
1180.65161	0.21246	0.61311	15876.41905	861.08105	10067.16842	1178.64028	0.61658	15728.00000	875.00000	10033.00000
1186.84597	0.21897	0.60400	16371.22020	852.06070	10225.59493	1184.83065	0.60664	16201.00000	846.00000	10161.00000
1193.04032	0.22370	0.59745	16894.18264	880.38932	10447.83244	1191.02102	0.59937	16730.00000	875.00000	10378.00000
1199.23468	0.22653	0.59357	17400.55626	883.09277	10687.35014	1197.21139	0.59442	17229.00000	882.00000	10599.00000
1205.42903	0.22662	0.59344	17922.85290	876.52702	10992.44777	1203.40176	0.59309	17758.00000	882.00000	10891.00000
1211.62339	0.22356	0.59765	18412.23826	867.41129	11353.00594	1209.59213	0.59566	18250.00000	866.00000	11221.00000
1217.81774	0.21709	0.60661	18946.64823	877.09601	11838.32268	1215.78250	0.60329	18763.00000	876.00000	11667.00000
1224.01210	0.20927	0.61763	19522.38589	879.59709	12393.99622	1221.97287	0.61397	19334.00000	877.00000	12209.00000
1230.20645	0.20230	0.62763	20046.82356	877.27220	12908.59329	1228.16324	0.62462	19884.00000	882.00000	12751.00000
1236.40081	0.19688	0.63551	20578.92550	894.33634	13404.15395	1234.35361	0.63304	20387.00000	878.00000	13228.00000
1242.59516	0.19267	0.64169	21116.97255	904.50586	13874.63038	1240.54398	0.63992	20962.00000	919.00000	13745.00000
1248.78952	0.18992	0.64578	21555.61107	852.78714	14222.22017	1246.73435	0.64456	21399.00000	858.00000	14098.00000
1254.98387	0.18767	0.64913	22112.97196	897.03001	14668.92091	1252.92472	0.64803	21917.00000	878.00000	14512.00000
1261.17823	0.18589	0.65180	22669.33634	902.45329	15090.04146	1259.11509	0.65107	22498.00000	915.00000	14967.00000
1267.37258	0.18478	0.65346	23144.86310	840.51764	15415.53076	1265.30546	0.65293	22985.00000	857.00000	15305.00000
1273.56694	0.18322	0.65582	23720.39347	860.92978	15852.66647	1271.49583	0.65484	23506.00000	841.00000	15683.00000
1279.76129	0.18118	0.65890	24372.77955	913.59084	16370.68517	1277.68620	0.65795	24166.00000	906.00000	16210.00000
1285.95565	0.17960	0.66130	24945.52650	893.87771	16799.34237	1283.87657	0.66052	24754.00000	903.00000	16657.00000
1292.15000	0.17828	0.66332	25532.41484	877.59600	17231.56585	1290.06694	0.66273	25332.00000	880.00000	17085.00000
1298.34435	0.17745	0.66458	26175.67024	884.75253	17692.65762	1296.25731	0.66423	25949.00000	881.00000	17532.00000
1304.53871	0.17757	0.66440	26805.92834	868.00311	18101.22577	1302.44769	0.66474	26610.00000	881.00000	17984.00000
1310.73306	0.17882	0.66250	27432.03993	867.23944	18466.37107	1308.63806	0.66321	27196.00000	853.00000	18324.00000
1316.92742	0.18103	0.65913	28161.82657	892.73544	18866.69123	1314.82843	0.66059	27925.00000	899.00000	18752.00000
1323.12177	0.18497	0.65318	28842.74169	862.95220	19138.79903	1321.01880	0.65543	28606.00000	864.00000	19047.00000
1329.31613	0.19032	0.64518	29519.54369	871.94640	19354.68521	1327.20917	0.64814	29300.00000	874.00000	19298.00000
1335.51048	0.19705	0.63526	30183.25265	863.66515	19489.32333	1333.39954	0.63881	29944.00000	862.00000	19440.00000
1341.70484	0.20491	0.62386	30926.51890	893.32929	19629.83007	1339.58991	0.62792	30673.00000	881.00000	19588.00000
1347.89919	0.21370	0.61136	31587.63481	894.88004	19659.31178	1345.78028	0.61570	31380.00000	904.00000	19668.00000
1354.09355	0.22268	0.59886	32227.78710	859.30420	19644.33238	1351.97065	0.60307	31988.00000	867.00000	19635.00000
1360.28790	0.23106	0.58741	32929.95072	867.11433	19701.28884	1358.16102	0.59118	32704.00000	861.00000	19686.00000
1366.48226	0.23920	0.57649	33569.06337	866.55753	19719.23627	1364.35139	0.58033	33341.00000	873.00000	19715.00000
1372.67661	0.24799	0.56494	34261.83351	843.87902	19723.13540	1370.54176	0.56897	34024.00000	848.00000	19724.00000
1378.87097	0.25728	0.55299	34838.67465	870.52277	19654.61697	1376.73213	0.55718	34668.00000	855.00000	19695.00000
1385.06532	0.26762	0.53998	35121.03064	877.10458	19368.31527	1382.92250	0.54467	35059.00000	888.00000	19500.00000
1391.25968	0.27962	0.52527	35289.43299	872.38486	18950.40869	1389.11287	0.53056	35214.00000	858.00000	19086.00000
1397.45403	0.29440	0.50769	35460.60298	899.47130	18446.11704	1395.30324	0.51430	35427.00000	906.00000	18660.00000
1403.64839	0.31355	0.48579	35666.10671	869.36576	17773.09983	1401.49361	0.49384	35545.00000	870.00000	17994.00000
1409.84274	0.33637	0.46092	36323.03255	883.09719	17217.95204	1407.68398	0.46979	36050.00000	883.00000	17404.00000
1416.03710	0.36070	0.43582	37284.68636	884.03189	16748.00330	1413.87435	0.44439	36926.00000	879.00000	16898.00000
1422.23145	0.38382	0.41322	38329.42739	892.53935	16362.37642	1420.06472	0.42074	37970.00000	895.00000	16494.00000
1428.42581	0.40376	0.39467	39434.74114	878.71439	16095.39956	1426.25509	0.40062	39022.00000	881.00000	16161.00000
1434.62016	0.41918	0.38090	40575.07439	880.06733	16000.24737	1432.44546	0.38522	40203.00000	880.00000	16028.00000
1440.81452	0.43001	0.37152	41493.68414	879.47622	15968.61363	1438.63583	0.37435	41184.00000	879.00000	15967.00000
1447.00887	0.43671	0.36584	42510.04768	905.41306	16125.90428	1444.82620	0.36750	42113.00000	891.00000	16040.00000
1453.20323	0.44101	0.36224	43543.72896	892.86717	16342.52417	1451.01657	0.36339	43229.00000	914.00000	16291.00000
1459.39758	0.44367	0.36002	44405.02794	864.61268	16540.24008	1457.20694	0.36057	44070.00000	855.00000	16437.00000
1465.59194	0.44442	0.35940	45481.34063	906.97918	16927.00072	1463.39731	0.35953	45094.00000	903.00000	16791.00000
1471.78629	0.44429	0.35951	46480.51435	890.87025	17280.61855	1469.58768	0.35938	46150.00000	894.00000	17158.00000
1477.98065	0.44317	0.36044	47320.91755	868.50781	17611.67275	1475.77805	0.36001	47029.00000	883.00000	17496.00000
1484.17500	0.44113	0.36214	48225.65661	857.63729	18011.34878	1481.96842	0.36146	47881.00000	849.00000	17849.00000
1490.36935	0.43855	0.36429	49092.30051	893.89890	18452.19975	1488.15879	0.36350	48824.00000	887.00000	18312.00000
1496.56371	0.43569	0.36670	49778.04514	887.35808	18815.70662	1494.34916	0.36580	49521.00000	891.00000	18680.00000
1502.75806	0.43243	0.36946	50469.48096	863.36996	19190.93915	1500.53953	0.36843	50241.00000	875.00000	19063.00000
1508.95242	0.42882	0.37255	51158.04064	897.54966	19621.96151	1506.72990	0.37141	50884.00000	867.00000	19444.00000
1515.14677	0.42548	0.37542	51878.91086	902.58342	20039.97533	1512.92027	0.37447	51650.00000	933.00000	19925.00000
1521.34113	0.42229	0.37819	52577.57434	850.45197	20413.13918	1519.11064	0.37710	52288.00000	838.00000	20240.00000
1527.53548	0.41913	0.38095	53324.26188	911.75147	20878.18808	1525.30101	0.38008	53098.00000	907.00000	20744.00000
1533.72984	0.41682	0.38299	53919.19306	885.74627	21196.95471	1531.49138	0.38225	53680.00000	890.00000	21069.00000
1539.92419	0.41483	0.38474	54593.00479	874.24673	21542.07233	1537.68175	0.38420	54367.00000	884.00000	21432.00000
1546.11855	0.41337	0.38604	55208.54831	866.87961	21844.97497	1543.87212	0.38556	54973.00000	860.00000	21724.00000
1552.31290	0.41202	0.38724	55811.51925	888.84465	22157.09496	1550.06249	0.38685	55614.00000	887.00000	22058.00000
1558.50726	0.41091	0.38823	56431.29012	888.46797	22452.10753	1556.25286	0.38787	56172.00000	885.00000	22329.00000
1564.70161	0.40999	0.38906	57011.94896	890.80855	22725.00195	1562.44323	0.38881	56858.00000	895.00000	22654.00000
1570.89597	0.40914	0.38982	57413.89650	869.93991	22911.87131	1568.63360	0.38948	57231.00000	876.00000	22825.00000
1577.09032	0.40762	0.39118	57979.03512	879.44141	23215.76154	1574.82397	0.39062	57786.00000	871.00000	23103.00000
1583.28468	0.40560	0.39301	58450.11400	894.72676	23514.46289	1581.01434	0.39230	58279.00000	894.00000	23406.00000
1589.47903	0.40299	0.39538	58825.25008	895.18773	23799.42790	1587.20471	0.39441	58712.00000	892.00000	23697.00000
1595.67339	0.39957	0.39850	59146.72764	885.70009	24102.61479	1593.39508	0.39728	59009.00000	896.00000	23983.00000
1601.86774	0.39546	0.40229	59574.82387	893.37146	24500.38107	1599.58545	0.40081	59419.00000	877.00000	24341.00000
1608.06210	0.39089	0.40654	59920.72690	909.46488	24900.18262	1605.77582	0.40497	59809.00000	920.00000	24768.00000
1614.25645	0.38607	0.41108	60220.95853	887.30010	25278.46495	1611.96619	0.40934	60102.00000	882.00000	25123.00000
1620.45081	0.38116	0.41576	60438.83040	897.12192	25651.86063	1618.15656	0.41408	60391.00000	905.00000	25537.00000
1626.64516	0.37638	0.42036	60579.30309	884.35356	25977.68631	1624.34693	0.41859	60502.00000	878.00000	25836.00000
1632.83952	0.37162	0.42499	60848.95373	899.57786	26377.58751	1630.53730	0.42335	60754.00000	903.00000	26241.00000
1639.03387	0.36738	0.42916	60928.35809	870.27700	26644.85601	1636.72767	0.42761	60938.00000	879.00000	26561.00000
1645.22823	0.36326	0.43325	60778.06969	873.98452	26827.61138	1642.91804	0.43175	60849.00000	868.00000	26765.00000
1651.42258	0.35939	0.43713	59777.88214	914.49031	26645.14883	1649.10841	0.43570	60357.00000	896.00000	26803.00000
1657.61694	0.35614	0.44041	57642.70006	920.63108	25901.39486	1655.29878	0.43932	58452.00000	931.00000	26201.00000
1663.81129	0.35359	0.44300	56689.89176	898.36344	25614.80785	1661.48915	0.44203	56762.00000	897.00000	25591.00000
1670.00565	0.35126	0.44539	55553.85124	917.06266	25251.16325	1667.67952	0.44457	56404.00000	914.00000	25583.00000
1676.20000	0.34970	0.44700	52318.47966	879.24303	23872.87851	1673.86989	0.44650	53497.00000	901.00000	24385.00000
0.00000	0.00000	0.00000	0.00000	0.00000	0.00000	1680.06026	0.44766	50136.00000	860.00000	22919.00000
0.00000	0.00000	0.00000	0.00000	0.00000	0.00000	1686.25063	0.44849	46019.00000	923.00000	21148.00000
0.00000	0.00000	0.00000	0.00000	0.00000	0.00000	1692.44100	0.44849	46019.00000	923.00000	21148.00000
