'File ÂóÆ¬_3_2016Ò»ÔÂ28_1126.xls
'Part ID ÂóÆ¬_3
'Scan Created 2016/1/28 11:26:47
'Instrument S1-00205
'Version 1.5.7
'Integration Time 10100 µs
'Number of Scans 50
'Units Absorbance
'Thermistor 49.04
Wavelength	Absorbance	Normalized	100%	dark	Raw 1	Native Wvl	Native Norm	Native 100%	Native dark	Native 1
908.10000	0.28236	0.52196	3595.82598	881.87120	2297.63149	906.26400	0.51498	3684.00000	880.00000	2324.00000
914.29435	0.26342	0.54523	3338.07467	866.26472	2214.21161	912.45437	0.53837	3404.00000	876.00000	2237.00000
920.48871	0.24311	0.57134	3265.72768	878.51909	2242.44019	918.64474	0.56279	3257.00000	860.00000	2209.00000
926.68306	0.22379	0.59732	3334.01990	918.74175	2361.30902	924.83511	0.59083	3324.00000	924.00000	2342.00000
932.87742	0.20863	0.61855	3389.36197	864.93184	2426.55803	931.02548	0.61129	3355.00000	875.00000	2391.00000
939.07177	0.19106	0.64408	3619.59224	884.95115	2646.25792	937.21585	0.63701	3537.00000	873.00000	2570.00000
945.26613	0.17864	0.66276	3856.44440	889.93616	2856.01180	943.40622	0.65782	3802.00000	900.00000	2809.00000
951.46048	0.17054	0.67525	4005.12223	859.91735	2983.70809	949.59659	0.67216	3955.00000	859.00000	2940.00000
957.65484	0.16678	0.68111	4215.51392	893.73656	3156.20176	955.78696	0.68005	4148.00000	885.00000	3104.00000
963.84919	0.16491	0.68406	4374.23623	878.43417	3269.76221	961.97733	0.68288	4344.00000	891.00000	3249.00000
970.04355	0.16250	0.68787	4523.41127	896.06510	3391.25165	968.16770	0.68705	4453.00000	871.00000	3332.00000
976.23790	0.16384	0.68574	4726.50938	925.04592	3531.72973	974.35807	0.68730	4693.00000	945.00000	3521.00000
982.43226	0.16616	0.68208	4835.26800	856.06452	3570.34438	980.54844	0.68221	4778.00000	854.00000	3531.00000
988.62661	0.16536	0.68334	5079.18703	905.14928	3757.35632	986.73881	0.68337	5013.00000	901.00000	3711.00000
994.82097	0.16675	0.68116	5288.13901	870.37131	3879.59745	992.92918	0.68189	5216.00000	881.00000	3837.00000
1001.01532	0.16762	0.67979	5547.24444	876.96250	4051.79062	999.11955	0.67999	5470.00000	867.00000	3997.00000
1007.20968	0.16711	0.68059	5821.73207	889.84005	4246.47621	1005.30992	0.68012	5729.00000	896.00000	4183.00000
1013.40403	0.16438	0.68489	6108.36987	875.33513	4459.34219	1011.50029	0.68301	6031.00000	870.00000	4395.00000
1019.59839	0.15985	0.69207	6349.51155	919.49996	4677.55258	1017.69066	0.68998	6269.00000	908.00000	4607.00000
1025.79274	0.15724	0.69625	6610.09178	908.88037	4878.21390	1023.88103	0.69546	6536.00000	921.00000	4826.00000
1031.98710	0.15551	0.69901	6863.27600	885.10537	5064.02671	1030.07140	0.69778	6776.00000	883.00000	4995.00000
1038.18145	0.15281	0.70338	7137.95533	879.30949	5281.43855	1036.26177	0.70227	7062.00000	892.00000	5225.00000
1044.37581	0.15099	0.70633	7415.45215	852.78191	5488.23475	1042.45214	0.70534	7313.00000	848.00000	5408.00000
1050.57016	0.14894	0.70968	7763.75520	889.74850	5768.09165	1048.64251	0.70870	7664.00000	884.00000	5689.00000
1056.76452	0.14727	0.71240	8043.98752	873.54577	5981.79408	1054.83288	0.71160	7958.00000	881.00000	5917.00000
1062.95887	0.14572	0.71496	8346.47029	875.55305	6217.00596	1061.02325	0.71415	8246.00000	868.00000	6137.00000
1069.15323	0.14440	0.71713	8651.05608	883.28349	6453.74804	1067.21362	0.71658	8564.00000	890.00000	6389.00000
1075.34758	0.14330	0.71896	8931.01237	859.29405	6662.56184	1073.40399	0.71828	8836.00000	860.00000	6589.00000
1081.54194	0.14204	0.72104	9243.78719	871.40916	6908.17385	1079.59436	0.72050	9149.00000	870.00000	6835.00000
1087.73629	0.14118	0.72247	9580.78777	901.76500	7172.12335	1085.78473	0.72200	9462.00000	883.00000	7077.00000
1093.93065	0.14048	0.72363	9940.76391	922.65990	7448.42432	1091.97510	0.72339	9841.00000	933.00000	7377.00000
1100.12500	0.14078	0.72313	10254.38783	869.25749	7655.92057	1098.16547	0.72351	10144.00000	878.00000	7582.00000
1106.31935	0.14153	0.72189	10641.04469	875.00467	7924.99694	1104.35584	0.72216	10519.00000	873.00000	7839.00000
1112.51371	0.14173	0.72156	11015.80766	872.41348	8191.54666	1110.54621	0.72164	10897.00000	874.00000	8107.00000
1118.70806	0.14257	0.72016	11401.60672	872.77123	8455.11496	1116.73658	0.72090	11276.00000	871.00000	8372.00000
1124.90242	0.14460	0.71681	11814.30888	885.70510	8719.49421	1122.92695	0.71794	11680.00000	881.00000	8634.00000
1131.09677	0.14812	0.71102	12236.17715	886.26842	8956.21083	1129.11732	0.71346	12103.00000	890.00000	8890.00000
1137.29113	0.15481	0.70015	12606.57558	854.95675	9082.97902	1135.30769	0.70407	12498.00000	867.00000	9056.00000
1143.48548	0.16358	0.68616	12995.31207	851.62722	9183.96393	1141.49806	0.69087	12851.00000	843.00000	9139.00000
1149.67984	0.17308	0.67130	13491.13514	894.93569	9350.90511	1147.68843	0.67601	13335.00000	884.00000	9301.00000
1155.87419	0.18319	0.65586	13953.07917	885.15852	9455.65508	1153.87880	0.66109	13805.00000	896.00000	9430.00000
1162.06855	0.19339	0.64064	14446.12872	862.12568	9564.59323	1160.06917	0.64508	14279.00000	862.00000	9517.00000
1168.26290	0.20076	0.62985	14959.02414	891.75197	9752.16482	1166.25954	0.63295	14800.00000	881.00000	9691.00000
1174.45726	0.20753	0.62011	15420.71473	898.79570	9903.94126	1172.44991	0.62352	15273.00000	903.00000	9863.00000
1180.65161	0.21550	0.60884	15876.41905	861.08105	10002.99127	1178.64028	0.61247	15728.00000	875.00000	9972.00000
1186.84597	0.22227	0.59941	16371.22020	852.06070	10154.51416	1184.83065	0.60208	16201.00000	846.00000	10091.00000
1193.04032	0.22704	0.59287	16894.18264	880.38932	10374.43851	1191.02102	0.59483	16730.00000	875.00000	10306.00000
1199.23468	0.23010	0.58871	17400.55626	883.09277	10607.03657	1197.21139	0.58965	17229.00000	882.00000	10521.00000
1205.42903	0.23029	0.58845	17922.85290	876.52702	10907.47133	1203.40176	0.58811	17758.00000	882.00000	10807.00000
1211.62339	0.22715	0.59272	18412.23826	867.41129	11266.55060	1209.59213	0.59072	18250.00000	866.00000	11135.00000
1217.81774	0.22054	0.60181	18946.64823	877.09601	11751.56327	1215.78250	0.59842	18763.00000	876.00000	11580.00000
1224.01210	0.21243	0.61315	19522.38589	879.59709	12310.41664	1221.97287	0.60936	19334.00000	877.00000	12124.00000
1230.20645	0.20521	0.62343	20046.82356	877.27220	12828.03658	1228.16324	0.62036	19884.00000	882.00000	12670.00000
1236.40081	0.19971	0.63137	20578.92550	894.33634	13322.71793	1234.35361	0.62889	20387.00000	878.00000	13147.00000
1242.59516	0.19543	0.63764	21116.97255	904.50586	13792.64683	1240.54398	0.63583	20962.00000	919.00000	13663.00000
1248.78952	0.19268	0.64169	21555.61107	852.78714	14137.45366	1246.73435	0.64052	21399.00000	858.00000	14015.00000
1254.98387	0.19045	0.64498	22112.97196	897.03001	14581.03903	1252.92472	0.64385	21917.00000	878.00000	14424.00000
1261.17823	0.18859	0.64775	22669.33634	902.45329	15001.93153	1259.11509	0.64704	22498.00000	915.00000	14880.00000
1267.37258	0.18750	0.64938	23144.86310	840.51764	15324.51946	1265.30546	0.64882	22985.00000	857.00000	15214.00000
1273.56694	0.18591	0.65176	23720.39347	860.92978	15759.77866	1271.49583	0.65083	23506.00000	841.00000	15592.00000
1279.76129	0.18392	0.65476	24372.77955	913.59084	16273.69797	1277.68620	0.65378	24166.00000	906.00000	16113.00000
1285.95565	0.18226	0.65726	24945.52650	893.87771	16702.02183	1283.87657	0.65649	24754.00000	903.00000	16561.00000
1292.15000	0.18098	0.65920	25532.41484	877.59600	17130.15221	1290.06694	0.65860	25332.00000	880.00000	16984.00000
1298.34435	0.18015	0.66047	26175.67024	884.75253	17588.55211	1296.25731	0.66016	25949.00000	881.00000	17430.00000
1304.53871	0.18035	0.66017	26805.92834	868.00311	17991.34480	1302.44769	0.66050	26610.00000	881.00000	17875.00000
1310.73306	0.18162	0.65823	27432.03993	867.23944	18353.16757	1308.63806	0.65900	27196.00000	853.00000	18213.00000
1316.92742	0.18396	0.65469	28161.82657	892.73544	18745.51787	1314.82843	0.65618	27925.00000	899.00000	18633.00000
1323.12177	0.18796	0.64870	28842.74169	862.95220	19013.39227	1321.01880	0.65096	28606.00000	864.00000	18923.00000
1329.31613	0.19342	0.64058	29519.54369	871.94640	19223.17480	1327.20917	0.64360	29300.00000	874.00000	19169.00000
1335.51048	0.20032	0.63050	30183.25265	863.66515	19349.61070	1333.39954	0.63410	29944.00000	862.00000	19303.00000
1341.70484	0.20830	0.61901	30926.51890	893.32929	19484.23657	1339.58991	0.62309	30673.00000	881.00000	19444.00000
1347.89919	0.21723	0.60642	31587.63481	894.88004	19507.55924	1345.78028	0.61081	31380.00000	904.00000	19519.00000
1354.09355	0.22642	0.59372	32227.78710	859.30420	19483.31149	1351.97065	0.59799	31988.00000	867.00000	19477.00000
1360.28790	0.23502	0.58208	32929.95072	867.11433	19530.56470	1358.16102	0.58594	32704.00000	861.00000	19519.00000
1366.48226	0.24334	0.57103	33569.06337	866.55753	19540.54336	1364.35139	0.57487	33341.00000	873.00000	19538.00000
1372.67661	0.25217	0.55954	34261.83351	843.87902	19542.41476	1370.54176	0.56354	34024.00000	848.00000	19544.00000
1378.87097	0.26158	0.54755	34838.67465	870.52277	19469.81909	1376.73213	0.55177	34668.00000	855.00000	19512.00000
1385.06532	0.27220	0.53432	35121.03064	877.10458	19174.46501	1382.92250	0.53911	35059.00000	888.00000	19310.00000
1391.25968	0.28448	0.51943	35289.43299	872.38486	18749.33454	1389.11287	0.52474	35214.00000	858.00000	18886.00000
1397.45403	0.29948	0.50179	35460.60298	899.47130	18242.16806	1395.30324	0.50844	35427.00000	906.00000	18458.00000
1403.64839	0.31894	0.47980	35666.10671	869.36576	17564.64523	1401.49361	0.48784	35545.00000	870.00000	17786.00000
1409.84274	0.34189	0.45510	36323.03255	883.09719	17011.79532	1407.68398	0.46390	36050.00000	883.00000	17197.00000
1416.03710	0.36633	0.43020	37284.68636	884.03189	16543.58911	1413.87435	0.43871	36926.00000	879.00000	16693.00000
1422.23145	0.38945	0.40789	38329.42739	892.53935	16163.01418	1420.06472	0.41529	37970.00000	895.00000	16292.00000
1428.42581	0.40921	0.38975	39434.74114	878.71439	15905.81603	1426.25509	0.39556	39022.00000	881.00000	15968.00000
1434.62016	0.42443	0.37633	40575.07439	880.06733	15818.74867	1432.44546	0.38054	40203.00000	880.00000	15844.00000
1440.81452	0.43513	0.36717	41493.68414	879.47622	15791.84230	1438.63583	0.36993	41184.00000	879.00000	15789.00000
1447.00887	0.44178	0.36160	42510.04768	905.41306	15949.44318	1444.82620	0.36323	42113.00000	891.00000	15864.00000
1453.20323	0.44606	0.35805	43543.72896	892.86717	16163.86452	1451.01657	0.35919	43229.00000	914.00000	16113.00000
1459.39758	0.44865	0.35592	44405.02794	864.61268	16361.53681	1457.20694	0.35643	44070.00000	855.00000	16258.00000
1465.59194	0.44934	0.35535	45481.34063	906.97918	16746.47460	1463.39731	0.35548	45094.00000	903.00000	16612.00000
1471.78629	0.44929	0.35539	46480.51435	890.87025	17093.04491	1469.58768	0.35529	46150.00000	894.00000	16973.00000
1477.98065	0.44817	0.35631	47320.91755	868.50781	17419.88931	1475.77805	0.35587	47029.00000	883.00000	17305.00000
1484.17500	0.44608	0.35803	48225.65661	857.63729	17816.72155	1481.96842	0.35735	47881.00000	849.00000	17656.00000
1490.36935	0.44350	0.36016	49092.30051	893.89890	18253.08883	1488.15879	0.35937	48824.00000	887.00000	18114.00000
1496.56371	0.44063	0.36255	49778.04514	887.35808	18612.69825	1494.34916	0.36167	49521.00000	891.00000	18479.00000
1502.75806	0.43746	0.36521	50469.48096	863.36996	18979.94918	1500.53953	0.36422	50241.00000	875.00000	18855.00000
1508.95242	0.43392	0.36820	51158.04064	897.54966	19403.50919	1506.72990	0.36710	50884.00000	867.00000	19228.00000
1515.14677	0.43065	0.37098	51878.91086	902.58342	19813.86559	1512.92027	0.37007	51650.00000	933.00000	19702.00000
1521.34113	0.42754	0.37365	52577.57434	850.45197	20178.17547	1519.11064	0.37259	52288.00000	838.00000	20008.00000
1527.53548	0.42440	0.37636	53324.26188	911.75147	20637.63971	1525.30101	0.37551	53098.00000	907.00000	20505.00000
1533.72984	0.42214	0.37832	53919.19306	885.74627	20949.56802	1531.49138	0.37763	53680.00000	890.00000	20825.00000
1539.92419	0.42026	0.37996	54593.00479	874.24673	21285.35804	1537.68175	0.37945	54367.00000	884.00000	21178.00000
1546.11855	0.41882	0.38122	55208.54831	866.87961	21583.26665	1543.87212	0.38076	54973.00000	860.00000	21464.00000
1552.31290	0.41751	0.38238	55811.51925	888.84465	21889.96678	1550.06249	0.38201	55614.00000	887.00000	21793.00000
1558.50726	0.41644	0.38332	56431.29012	888.46797	22178.98288	1556.25286	0.38297	56172.00000	885.00000	22058.00000
1564.70161	0.41558	0.38408	57011.94896	890.80855	22445.56643	1562.44323	0.38386	56858.00000	895.00000	22377.00000
1570.89597	0.41472	0.38484	57413.89650	869.93991	22630.34629	1568.63360	0.38447	57231.00000	876.00000	22543.00000
1577.09032	0.41316	0.38622	57979.03512	879.44141	22932.53323	1574.82397	0.38568	57786.00000	871.00000	22822.00000
1583.28468	0.41128	0.38790	58450.11400	894.72676	23220.57625	1581.01434	0.38724	58279.00000	894.00000	23116.00000
1589.47903	0.40873	0.39019	58825.25008	895.18773	23498.59819	1587.20471	0.38924	58712.00000	892.00000	23398.00000
1595.67339	0.40535	0.39323	59146.72764	885.70009	23795.66292	1593.39508	0.39205	59009.00000	896.00000	23679.00000
1601.86774	0.40127	0.39695	59574.82387	893.37146	24186.79527	1599.58545	0.39548	59419.00000	877.00000	24029.00000
1608.06210	0.39670	0.40114	59920.72690	909.46488	24581.43541	1605.77582	0.39960	59809.00000	920.00000	24452.00000
1614.25645	0.39191	0.40559	60220.95853	887.30010	24952.50942	1611.96619	0.40387	60102.00000	882.00000	24799.00000
1620.45081	0.38698	0.41022	60438.83040	897.12192	25322.50310	1618.15656	0.40857	60391.00000	905.00000	25209.00000
1626.64516	0.38224	0.41473	60579.30309	884.35356	25641.54838	1624.34693	0.41300	60502.00000	878.00000	25503.00000
1632.83952	0.37750	0.41928	60848.95373	899.57786	26035.18764	1630.53730	0.41765	60754.00000	903.00000	25900.00000
1639.03387	0.37324	0.42340	60928.35809	870.27700	26298.98566	1636.72767	0.42189	60938.00000	879.00000	26217.00000
1645.22823	0.36920	0.42737	60778.06969	873.98452	26475.38976	1642.91804	0.42592	60849.00000	868.00000	26415.00000
1651.42258	0.36544	0.43108	59777.88214	914.49031	26289.21907	1649.10841	0.42973	60357.00000	896.00000	26448.00000
1657.61694	0.36232	0.43419	57642.70006	920.63108	25548.88488	1655.29878	0.43315	58452.00000	931.00000	25846.00000
1663.81129	0.35978	0.43674	56689.89176	898.36344	25265.35869	1661.48915	0.43578	56762.00000	897.00000	25242.00000
1670.00565	0.35749	0.43904	55553.85124	917.06266	24904.25298	1667.67952	0.43826	56404.00000	914.00000	25233.00000
1676.20000	0.35597	0.44059	52318.47966	879.24303	23543.17646	1673.86989	0.44009	53497.00000	901.00000	24048.00000
0.00000	0.00000	0.00000	0.00000	0.00000	0.00000	1680.06026	0.44127	50136.00000	860.00000	22604.00000
0.00000	0.00000	0.00000	0.00000	0.00000	0.00000	1686.25063	0.44206	46019.00000	923.00000	20858.00000
0.00000	0.00000	0.00000	0.00000	0.00000	0.00000	1692.44100	0.44206	46019.00000	923.00000	20858.00000
