'File ÂóÆ¬_5_2016Ò»ÔÂ28_1126.xls
'Part ID ÂóÆ¬_5
'Scan Created 2016/1/28 11:26:54
'Instrument S1-00205
'Version 1.5.7
'Integration Time 10100 µs
'Number of Scans 50
'Units Absorbance
'Thermistor 49.04
Wavelength	Absorbance	Normalized	100%	dark	Raw 1	Native Wvl	Native Norm	Native 100%	Native dark	Native 1
908.10000	0.26957	0.53757	3595.82598	881.87120	2339.95074	906.26400	0.53031	3684.00000	880.00000	2367.00000
914.29435	0.25051	0.56168	3338.07467	866.26472	2254.87915	912.45437	0.55459	3404.00000	876.00000	2278.00000
920.48871	0.23068	0.58792	3265.72768	878.51909	2282.01495	918.64474	0.57947	3257.00000	860.00000	2249.00000
926.68306	0.21212	0.61360	3334.01990	918.74175	2400.63615	924.83511	0.60708	3324.00000	924.00000	2381.00000
932.87742	0.19716	0.63510	3389.36197	864.93184	2468.32175	931.02548	0.62782	3355.00000	875.00000	2432.00000
939.07177	0.18002	0.66066	3619.59224	884.95115	2691.63388	937.21585	0.65353	3537.00000	873.00000	2614.00000
945.26613	0.16812	0.67901	3856.44440	889.93616	2904.17327	943.40622	0.67436	3802.00000	900.00000	2857.00000
951.46048	0.16069	0.69073	4005.12223	859.91735	3032.42447	949.59659	0.68766	3955.00000	859.00000	2988.00000
957.65484	0.15662	0.69724	4215.51392	893.73656	3209.77002	955.78696	0.69599	4148.00000	885.00000	3156.00000
963.84919	0.15483	0.70012	4374.23623	878.43417	3325.90232	961.97733	0.69910	4344.00000	891.00000	3305.00000
970.04355	0.15276	0.70347	4523.41127	896.06510	3447.84645	968.16770	0.70268	4453.00000	871.00000	3388.00000
976.23790	0.15397	0.70151	4726.50938	925.04592	3591.68268	974.35807	0.70304	4693.00000	945.00000	3580.00000
982.43226	0.15618	0.69794	4835.26800	856.06452	3633.43253	980.54844	0.69801	4778.00000	854.00000	3593.00000
988.62661	0.15522	0.69948	5079.18703	905.14928	3824.72026	986.73881	0.69942	5013.00000	901.00000	3777.00000
994.82097	0.15635	0.69768	5288.13901	870.37131	3952.56817	992.92918	0.69827	5216.00000	881.00000	3908.00000
1001.01532	0.15708	0.69650	5547.24444	876.96250	4129.79338	999.11955	0.69672	5470.00000	867.00000	4074.00000
1007.20968	0.15668	0.69714	5821.73207	889.84005	4328.09094	1005.30992	0.69667	5729.00000	896.00000	4263.00000
1013.40403	0.15390	0.70162	6108.36987	875.33513	4546.87074	1011.50029	0.69967	6031.00000	870.00000	4481.00000
1019.59839	0.14946	0.70883	6349.51155	919.49996	4768.53862	1017.69066	0.70677	6269.00000	908.00000	4697.00000
1025.79274	0.14686	0.71308	6610.09178	908.88037	4974.19750	1023.88103	0.71220	6536.00000	921.00000	4920.00000
1031.98710	0.14517	0.71586	6863.27600	885.10537	5164.73555	1030.07140	0.71475	6776.00000	883.00000	5095.00000
1038.18145	0.14292	0.71959	7137.95533	879.30949	5382.88627	1036.26177	0.71864	7062.00000	892.00000	5326.00000
1044.37581	0.14119	0.72245	7415.45215	852.78191	5594.06640	1042.45214	0.72142	7313.00000	848.00000	5512.00000
1050.57016	0.13914	0.72588	7763.75520	889.74850	5879.39752	1048.64251	0.72493	7664.00000	884.00000	5799.00000
1056.76452	0.13772	0.72824	8043.98752	873.54577	6095.36171	1054.83288	0.72757	7958.00000	881.00000	6030.00000
1062.95887	0.13622	0.73078	8346.47029	875.55305	6335.17047	1061.02325	0.72987	8246.00000	868.00000	6253.00000
1069.15323	0.13484	0.73310	8651.05608	883.28349	6577.80103	1067.21362	0.73260	8564.00000	890.00000	6512.00000
1075.34758	0.13398	0.73454	8931.01237	859.29405	6788.35413	1073.40399	0.73395	8836.00000	860.00000	6714.00000
1081.54194	0.13288	0.73642	9243.78719	871.40916	7036.92608	1079.59436	0.73596	9149.00000	870.00000	6963.00000
1087.73629	0.13207	0.73779	9580.78777	901.76500	7305.08105	1085.78473	0.73727	9462.00000	883.00000	7208.00000
1093.93065	0.13142	0.73889	9940.76391	922.65990	7586.02752	1091.97510	0.73877	9841.00000	933.00000	7514.00000
1100.12500	0.13183	0.73819	10254.38783	869.25749	7797.28238	1098.16547	0.73851	10144.00000	878.00000	7721.00000
1106.31935	0.13238	0.73726	10641.04469	875.00467	8075.15074	1104.35584	0.73751	10519.00000	873.00000	7987.00000
1112.51371	0.13267	0.73677	11015.80766	872.41348	8345.80882	1110.54621	0.73691	10897.00000	874.00000	8260.00000
1118.70806	0.13348	0.73540	11401.60672	872.77123	8615.57779	1116.73658	0.73609	11276.00000	871.00000	8530.00000
1124.90242	0.13526	0.73239	11814.30888	885.70510	8889.84848	1122.92695	0.73340	11680.00000	881.00000	8801.00000
1131.09677	0.13868	0.72664	12236.17715	886.26842	9133.42990	1129.11732	0.72915	12103.00000	890.00000	9066.00000
1137.29113	0.14513	0.71593	12606.57558	854.95675	9268.47876	1135.30769	0.71963	12498.00000	867.00000	9237.00000
1143.48548	0.15311	0.70289	12995.31207	851.62722	9387.10261	1141.49806	0.70736	12851.00000	843.00000	9337.00000
1149.67984	0.16213	0.68844	13491.13514	894.93569	9566.84410	1147.68843	0.69304	13335.00000	884.00000	9513.00000
1155.87419	0.17169	0.67345	13953.07917	885.15852	9685.64123	1153.87880	0.67852	13805.00000	896.00000	9655.00000
1162.06855	0.18128	0.65874	14446.12872	862.12568	9810.52220	1160.06917	0.66304	14279.00000	862.00000	9758.00000
1168.26290	0.18826	0.64824	14959.02414	891.75197	10010.83441	1166.25954	0.65127	14800.00000	881.00000	9946.00000
1174.45726	0.19481	0.63854	15420.71473	898.79570	10171.47542	1172.44991	0.64196	15273.00000	903.00000	10128.00000
1180.65161	0.20246	0.62739	15876.41905	861.08105	10281.59465	1178.64028	0.63092	15728.00000	875.00000	10246.00000
1186.84597	0.20881	0.61829	16371.22020	852.06070	10447.48505	1184.83065	0.62091	16201.00000	846.00000	10380.00000
1193.04032	0.21346	0.61170	16894.18264	880.38932	10675.91161	1191.02102	0.61369	16730.00000	875.00000	10605.00000
1199.23468	0.21636	0.60763	17400.55626	883.09277	10919.69341	1197.21139	0.60849	17229.00000	882.00000	10829.00000
1205.42903	0.21636	0.60763	17922.85290	876.52702	11234.40928	1203.40176	0.60725	17758.00000	882.00000	11130.00000
1211.62339	0.21345	0.61171	18412.23826	867.41129	11599.81790	1209.59213	0.60981	18250.00000	866.00000	11467.00000
1217.81774	0.20723	0.62054	18946.64823	877.09601	12090.05494	1215.78250	0.61721	18763.00000	876.00000	11916.00000
1224.01210	0.19950	0.63169	19522.38589	879.59709	12655.99595	1221.97287	0.62800	19334.00000	877.00000	12468.00000
1230.20645	0.19276	0.64156	20046.82356	877.27220	13175.64539	1228.16324	0.63862	19884.00000	882.00000	13017.00000
1236.40081	0.18758	0.64926	20578.92550	894.33634	13674.79057	1234.35361	0.64683	20387.00000	878.00000	13497.00000
1242.59516	0.18349	0.65541	21116.97255	904.50586	14151.83909	1240.54398	0.65364	20962.00000	919.00000	14020.00000
1248.78952	0.18084	0.65942	21555.61107	852.78714	14504.60332	1246.73435	0.65824	21399.00000	858.00000	14379.00000
1254.98387	0.17872	0.66264	22112.97196	897.03001	14955.62392	1252.92472	0.66158	21917.00000	878.00000	14797.00000
1261.17823	0.17700	0.66528	22669.33634	902.45329	15383.45470	1259.11509	0.66455	22498.00000	915.00000	15258.00000
1267.37258	0.17593	0.66691	23144.86310	840.51764	15715.39458	1265.30546	0.66640	22985.00000	857.00000	15603.00000
1273.56694	0.17448	0.66914	23720.39347	860.92978	16157.22303	1271.49583	0.66821	23506.00000	841.00000	15986.00000
1279.76129	0.17256	0.67211	24372.77955	913.59084	16680.67023	1277.68620	0.67120	24166.00000	906.00000	16518.00000
1285.95565	0.17106	0.67443	24945.52650	893.87771	17115.16961	1283.87657	0.67368	24754.00000	903.00000	16971.00000
1292.15000	0.16985	0.67631	25532.41484	877.59600	17551.97732	1290.06694	0.67577	25332.00000	880.00000	17404.00000
1298.34435	0.16921	0.67731	26175.67024	884.75253	18014.61575	1296.25731	0.67708	25949.00000	881.00000	17854.00000
1304.53871	0.16938	0.67705	26805.92834	868.00311	18429.16430	1302.44769	0.67733	26610.00000	881.00000	18308.00000
1310.73306	0.17052	0.67528	27432.03993	867.23944	18805.89567	1308.63806	0.67601	27196.00000	853.00000	18661.00000
1316.92742	0.17280	0.67174	28161.82657	892.73544	19210.56358	1314.82843	0.67324	27925.00000	899.00000	19094.00000
1323.12177	0.17668	0.66576	28842.74169	862.95220	19490.68376	1321.01880	0.66801	28606.00000	864.00000	19396.00000
1329.31613	0.18191	0.65779	29519.54369	871.94640	19716.19680	1327.20917	0.66073	29300.00000	874.00000	19656.00000
1335.51048	0.18854	0.64782	30183.25265	863.66515	19857.57076	1333.39954	0.65143	29944.00000	862.00000	19807.00000
1341.70484	0.19632	0.63633	30926.51890	893.32929	20004.36068	1339.58991	0.64037	30673.00000	881.00000	19959.00000
1347.89919	0.20491	0.62387	31587.63481	894.88004	20043.16955	1345.78028	0.62823	31380.00000	904.00000	20050.00000
1354.09355	0.21385	0.61116	32227.78710	859.30420	20030.25024	1351.97065	0.61544	31988.00000	867.00000	20020.00000
1360.28790	0.22219	0.59953	32929.95072	867.11433	20089.89095	1358.16102	0.60337	32704.00000	861.00000	20074.00000
1366.48226	0.23028	0.58847	33569.06337	866.55753	20110.83241	1364.35139	0.59234	33341.00000	873.00000	20105.00000
1372.67661	0.23904	0.57672	34261.83351	843.87902	20116.64481	1370.54176	0.58084	34024.00000	848.00000	20118.00000
1378.87097	0.24841	0.56440	34838.67465	870.52277	20042.28496	1376.73213	0.56872	34668.00000	855.00000	20085.00000
1385.06532	0.25883	0.55102	35121.03064	877.10458	19746.29851	1382.92250	0.55585	35059.00000	888.00000	19882.00000
1391.25968	0.27085	0.53599	35289.43299	872.38486	19319.29006	1389.11287	0.54136	35214.00000	858.00000	19457.00000
1397.45403	0.28562	0.51807	35460.60298	899.47130	18804.69487	1395.30324	0.52484	35427.00000	906.00000	19024.00000
1403.64839	0.30490	0.49557	35666.10671	869.36576	18113.44626	1401.49361	0.50382	35545.00000	870.00000	18340.00000
1409.84274	0.32780	0.47011	36323.03255	883.09719	17543.40855	1407.68398	0.47920	36050.00000	883.00000	17735.00000
1416.03710	0.35235	0.44427	37284.68636	884.03189	17055.70609	1413.87435	0.45310	36926.00000	879.00000	17212.00000
1422.23145	0.37569	0.42103	38329.42739	892.53935	16654.73156	1420.06472	0.42875	37970.00000	895.00000	16791.00000
1428.42581	0.39574	0.40203	39434.74114	878.71439	16379.04472	1426.25509	0.40812	39022.00000	881.00000	16447.00000
1434.62016	0.41127	0.38790	40575.07439	880.06733	16278.10372	1432.44546	0.39234	40203.00000	880.00000	16308.00000
1440.81452	0.42217	0.37829	41493.68414	879.47622	16243.58516	1438.63583	0.38117	41184.00000	879.00000	16242.00000
1447.00887	0.42884	0.37253	42510.04768	905.41306	16404.42793	1444.82620	0.37422	42113.00000	891.00000	16317.00000
1453.20323	0.43309	0.36890	43543.72896	892.86717	16626.94123	1451.01657	0.37006	43229.00000	914.00000	16573.00000
1459.39758	0.43568	0.36671	44405.02794	864.61268	16831.38186	1457.20694	0.36726	44070.00000	855.00000	16726.00000
1465.59194	0.43643	0.36608	45481.34063	906.97918	17224.57550	1463.39731	0.36621	45094.00000	903.00000	17086.00000
1471.78629	0.43626	0.36622	46480.51435	890.87025	17586.73444	1469.58768	0.36607	46150.00000	894.00000	17461.00000
1477.98065	0.43513	0.36717	47320.91755	868.50781	17924.59104	1475.77805	0.36675	47029.00000	883.00000	17807.00000
1484.17500	0.43308	0.36891	48225.65661	857.63729	18332.06139	1481.96842	0.36820	47881.00000	849.00000	18166.00000
1490.36935	0.43044	0.37116	49092.30051	893.89890	18783.10970	1488.15879	0.37034	48824.00000	887.00000	18640.00000
1496.56371	0.42758	0.37361	49778.04514	887.35808	19153.33259	1494.34916	0.37269	49521.00000	891.00000	19015.00000
1502.75806	0.42431	0.37644	50469.48096	863.36996	19536.96267	1500.53953	0.37538	50241.00000	875.00000	19406.00000
1508.95242	0.42070	0.37958	51158.04064	897.54966	19975.35083	1506.72990	0.37843	50884.00000	867.00000	19795.00000
1515.14677	0.41742	0.38246	51878.91086	902.58342	20398.74438	1512.92027	0.38151	51650.00000	933.00000	20282.00000
1521.34113	0.41428	0.38523	52577.57434	850.45197	20777.24771	1519.11064	0.38414	52288.00000	838.00000	20602.00000
1527.53548	0.41116	0.38801	53324.26188	911.75147	21248.17151	1525.30101	0.38714	53098.00000	907.00000	21112.00000
1533.72984	0.40888	0.39005	53919.19306	885.74627	21571.43189	1531.49138	0.38932	53680.00000	890.00000	21442.00000
1539.92419	0.40695	0.39179	54593.00479	874.24673	21920.55034	1537.68175	0.39125	54367.00000	884.00000	21809.00000
1546.11855	0.40558	0.39303	55208.54831	866.87961	22224.70086	1543.87212	0.39259	54973.00000	860.00000	22104.00000
1552.31290	0.40428	0.39420	55811.51925	888.84465	22539.27456	1550.06249	0.39379	55614.00000	887.00000	22438.00000
1558.50726	0.40316	0.39523	56431.29012	888.46797	22840.45021	1556.25286	0.39487	56172.00000	885.00000	22716.00000
1564.70161	0.40236	0.39595	57011.94896	890.80855	23111.99127	1562.44323	0.39574	56858.00000	895.00000	23042.00000
1570.89597	0.40153	0.39671	57413.89650	869.93991	23301.36005	1568.63360	0.39634	57231.00000	876.00000	23212.00000
1577.09032	0.39993	0.39817	57979.03512	879.44141	23614.96725	1574.82397	0.39758	57786.00000	871.00000	23499.00000
1583.28468	0.39795	0.39999	58450.11400	894.72676	23916.16735	1581.01434	0.39930	58279.00000	894.00000	23808.00000
1589.47903	0.39547	0.40228	58825.25008	895.18773	24199.16481	1587.20471	0.40133	58712.00000	892.00000	24097.00000
1595.67339	0.39206	0.40545	59146.72764	885.70009	24507.73883	1593.39508	0.40420	59009.00000	896.00000	24385.00000
1601.86774	0.38792	0.40933	59574.82387	893.37146	24913.54207	1599.58545	0.40783	59419.00000	877.00000	24752.00000
1608.06210	0.38343	0.41359	59920.72690	909.46488	25316.00046	1605.77582	0.41201	59809.00000	920.00000	25183.00000
1614.25645	0.37861	0.41821	60220.95853	887.30010	25701.20312	1611.96619	0.41641	60102.00000	882.00000	25542.00000
1620.45081	0.37367	0.42299	60438.83040	897.12192	26082.38334	1618.15656	0.42129	60391.00000	905.00000	25966.00000
1626.64516	0.36897	0.42759	60579.30309	884.35356	26409.40673	1624.34693	0.42582	60502.00000	878.00000	26267.00000
1632.83952	0.36421	0.43230	60848.95373	899.57786	26815.79973	1630.53730	0.43062	60754.00000	903.00000	26676.00000
1639.03387	0.35996	0.43655	60928.35809	870.27700	27088.76769	1636.72767	0.43499	60938.00000	879.00000	27004.00000
1645.22823	0.35589	0.44067	60778.06969	873.98452	27272.04609	1642.91804	0.43916	60849.00000	868.00000	27209.00000
1651.42258	0.35213	0.44449	59777.88214	914.49031	27078.63589	1649.10841	0.44311	60357.00000	896.00000	27244.00000
1657.61694	0.34913	0.44758	57642.70006	920.63108	26307.88681	1655.29878	0.44655	58452.00000	931.00000	26617.00000
1663.81129	0.34664	0.45015	56689.89176	898.36344	26013.58703	1661.48915	0.44915	56762.00000	897.00000	25989.00000
1670.00565	0.34437	0.45251	55553.85124	917.06266	25640.41044	1667.67952	0.45174	56404.00000	914.00000	25981.00000
1676.20000	0.34295	0.45400	52318.47966	879.24303	24232.92197	1673.86989	0.45351	53497.00000	901.00000	24754.00000
0.00000	0.00000	0.00000	0.00000	0.00000	0.00000	1680.06026	0.45466	50136.00000	860.00000	23264.00000
0.00000	0.00000	0.00000	0.00000	0.00000	0.00000	1686.25063	0.45536	46019.00000	923.00000	21458.00000
0.00000	0.00000	0.00000	0.00000	0.00000	0.00000	1692.44100	0.45536	46019.00000	923.00000	21458.00000
