'File ÂóÆ¬_1_2016Ò»ÔÂ28_1126.xls
'Part ID ÂóÆ¬_1
'Scan Created 2016/1/28 11:26:29
'Instrument S1-00205
'Version 1.5.7
'Integration Time 10100 µs
'Number of Scans 50
'Units Absorbance
'Thermistor 48.72
Wavelength	Absorbance	Normalized	100%	dark	Raw 1	Native Wvl	Native Norm	Native 100%	Native dark	Native 1
908.10000	0.27993	0.52489	3595.82598	881.87120	2305.57101	906.26400	0.51783	3684.00000	880.00000	2332.00000
914.29435	0.26080	0.54853	3338.07467	866.26472	2222.37443	912.45437	0.54153	3404.00000	876.00000	2245.00000
920.48871	0.24077	0.57442	3265.72768	878.51909	2249.79531	918.64474	0.56612	3257.00000	860.00000	2217.00000
926.68306	0.22193	0.59989	3334.01990	918.74175	2367.53881	924.83511	0.59333	3324.00000	924.00000	2348.00000
932.87742	0.20682	0.62113	3389.36197	864.93184	2433.03063	931.02548	0.61411	3355.00000	875.00000	2398.00000
939.07177	0.18975	0.64602	3619.59224	884.95115	2651.62262	937.21585	0.63889	3537.00000	873.00000	2575.00000
945.26613	0.17710	0.66512	3856.44440	889.93616	2862.97138	943.40622	0.66023	3802.00000	900.00000	2816.00000
951.46048	0.16931	0.67715	4005.12223	859.91735	2989.72859	949.59659	0.67410	3955.00000	859.00000	2946.00000
957.65484	0.16535	0.68335	4215.51392	893.73656	3163.65101	955.78696	0.68219	4148.00000	885.00000	3111.00000
963.84919	0.16346	0.68634	4374.23623	878.43417	3277.72704	961.97733	0.68520	4344.00000	891.00000	3257.00000
970.04355	0.16104	0.69017	4523.41127	896.06510	3399.63133	968.16770	0.68928	4453.00000	871.00000	3340.00000
976.23790	0.16241	0.68800	4726.50938	925.04592	3540.31832	974.35807	0.68970	4693.00000	945.00000	3530.00000
982.43226	0.16510	0.68376	4835.26800	856.06452	3577.00805	980.54844	0.68400	4778.00000	854.00000	3538.00000
988.62661	0.16422	0.68513	5079.18703	905.14928	3764.84526	986.73881	0.68507	5013.00000	901.00000	3718.00000
994.82097	0.16535	0.68336	5288.13901	870.37131	3889.31083	992.92918	0.68397	5216.00000	881.00000	3846.00000
1001.01532	0.16608	0.68221	5547.24444	876.96250	4063.05743	999.11955	0.68238	5470.00000	867.00000	4008.00000
1007.20968	0.16575	0.68273	5821.73207	889.84005	4256.99655	1005.30992	0.68239	5729.00000	896.00000	4194.00000
1013.40403	0.16310	0.68690	6108.36987	875.33513	4469.90768	1011.50029	0.68494	6031.00000	870.00000	4405.00000
1019.59839	0.15848	0.69426	6349.51155	919.49996	4689.36972	1017.69066	0.69222	6269.00000	908.00000	4619.00000
1025.79274	0.15599	0.69824	6610.09178	908.88037	4889.62500	1023.88103	0.69742	6536.00000	921.00000	4837.00000
1031.98710	0.15415	0.70122	6863.27600	885.10537	5077.20356	1030.07140	0.69998	6776.00000	883.00000	5008.00000
1038.18145	0.15151	0.70549	7137.95533	879.30949	5294.69054	1036.26177	0.70438	7062.00000	892.00000	5238.00000
1044.37581	0.14968	0.70846	7415.45215	852.78191	5502.20889	1042.45214	0.70750	7313.00000	848.00000	5422.00000
1050.57016	0.14764	0.71180	7763.75520	889.74850	5782.67643	1048.64251	0.71077	7664.00000	884.00000	5703.00000
1056.76452	0.14591	0.71464	8043.98752	873.54577	5997.81015	1054.83288	0.71386	7958.00000	881.00000	5933.00000
1062.95887	0.14436	0.71720	8346.47029	875.55305	6233.76685	1061.02325	0.71632	8246.00000	868.00000	6153.00000
1069.15323	0.14306	0.71935	8651.05608	883.28349	6470.93499	1067.21362	0.71892	8564.00000	890.00000	6407.00000
1075.34758	0.14215	0.72086	8931.01237	859.29405	6677.97881	1073.40399	0.72016	8836.00000	860.00000	6604.00000
1081.54194	0.14070	0.72327	9243.78719	871.40916	6926.84907	1079.59436	0.72267	9149.00000	870.00000	6853.00000
1087.73629	0.13986	0.72467	9580.78777	901.76500	7191.21647	1085.78473	0.72421	9462.00000	883.00000	7096.00000
1093.93065	0.13925	0.72569	9940.76391	922.65990	7467.02239	1091.97510	0.72553	9841.00000	933.00000	7396.00000
1100.12500	0.13960	0.72510	10254.38783	869.25749	7674.34691	1098.16547	0.72545	10144.00000	878.00000	7600.00000
1106.31935	0.14014	0.72421	10641.04469	875.00467	7947.70444	1104.35584	0.72434	10519.00000	873.00000	7860.00000
1112.51371	0.14027	0.72398	11015.80766	872.41348	8216.02651	1110.54621	0.72413	10897.00000	874.00000	8132.00000
1118.70806	0.14121	0.72242	11401.60672	872.77123	8478.96131	1116.73658	0.72311	11276.00000	871.00000	8395.00000
1124.90242	0.14307	0.71933	11814.30888	885.70510	8747.07713	1122.92695	0.72044	11680.00000	881.00000	8661.00000
1131.09677	0.14656	0.71357	12236.17715	886.26842	8985.09769	1129.11732	0.71595	12103.00000	890.00000	8918.00000
1137.29113	0.15304	0.70300	12606.57558	854.95675	9116.50246	1135.30769	0.70682	12498.00000	867.00000	9088.00000
1143.48548	0.16155	0.68937	12995.31207	851.62722	9222.94402	1141.49806	0.69395	12851.00000	843.00000	9176.00000
1149.67984	0.17081	0.67482	13491.13514	894.93569	9395.26529	1147.68843	0.67946	13335.00000	884.00000	9344.00000
1155.87419	0.18073	0.65959	13953.07917	885.15852	9504.39704	1153.87880	0.66473	13805.00000	896.00000	9477.00000
1162.06855	0.19066	0.64468	14446.12872	862.12568	9619.45936	1160.06917	0.64903	14279.00000	862.00000	9570.00000
1168.26290	0.19787	0.63406	14959.02414	891.75197	9811.26827	1166.25954	0.63711	14800.00000	881.00000	9749.00000
1174.45726	0.20455	0.62438	15420.71473	898.79570	9965.90025	1172.44991	0.62777	15273.00000	903.00000	9924.00000
1180.65161	0.21231	0.61332	15876.41905	861.08105	10070.24798	1178.64028	0.61685	15728.00000	875.00000	10037.00000
1186.84597	0.21886	0.60415	16371.22020	852.06070	10227.99509	1184.83065	0.60677	16201.00000	846.00000	10163.00000
1193.04032	0.22350	0.59773	16894.18264	880.38932	10452.21917	1191.02102	0.59962	16730.00000	875.00000	10382.00000
1199.23468	0.22638	0.59377	17400.55626	883.09277	10690.75403	1197.21139	0.59467	17229.00000	882.00000	10603.00000
1205.42903	0.22646	0.59366	17922.85290	876.52702	10996.32093	1203.40176	0.59327	17758.00000	882.00000	10894.00000
1211.62339	0.22330	0.59799	18412.23826	867.41129	11359.08099	1209.59213	0.59601	18250.00000	866.00000	11227.00000
1217.81774	0.21691	0.60687	18946.64823	877.09601	11842.96463	1215.78250	0.60357	18763.00000	876.00000	11672.00000
1224.01210	0.20914	0.61781	19522.38589	879.59709	12397.37999	1221.97287	0.61418	19334.00000	877.00000	12213.00000
1230.20645	0.20215	0.62784	20046.82356	877.27220	12912.58573	1228.16324	0.62478	19884.00000	882.00000	12754.00000
1236.40081	0.19668	0.63580	20578.92550	894.33634	13409.76413	1234.35361	0.63335	20387.00000	878.00000	13234.00000
1242.59516	0.19253	0.64190	21116.97255	904.50586	13878.83671	1240.54398	0.64012	20962.00000	919.00000	13749.00000
1248.78952	0.18977	0.64599	21555.61107	852.78714	14226.56020	1246.73435	0.64481	21399.00000	858.00000	14103.00000
1254.98387	0.18755	0.64930	22112.97196	897.03001	14672.66046	1252.92472	0.64818	21917.00000	878.00000	14515.00000
1261.17823	0.18570	0.65208	22669.33634	902.45329	15096.07075	1259.11509	0.65135	22498.00000	915.00000	14973.00000
1267.37258	0.18463	0.65369	23144.86310	840.51764	15420.52398	1265.30546	0.65315	22985.00000	857.00000	15310.00000
1273.56694	0.18309	0.65601	23720.39347	860.92978	15856.92162	1271.49583	0.65506	23506.00000	841.00000	15688.00000
1279.76129	0.18102	0.65915	24372.77955	913.59084	16376.63582	1277.68620	0.65813	24166.00000	906.00000	16214.00000
1285.95565	0.17933	0.66171	24945.52650	893.87771	16809.03158	1283.87657	0.66094	24754.00000	903.00000	16667.00000
1292.15000	0.17816	0.66349	25532.41484	877.59600	17235.89890	1290.06694	0.66297	25332.00000	880.00000	17091.00000
1298.34435	0.17736	0.66471	26175.67024	884.75253	17696.06533	1296.25731	0.66435	25949.00000	881.00000	17535.00000
1304.53871	0.17743	0.66462	26805.92834	868.00311	18106.72880	1302.44769	0.66493	26610.00000	881.00000	17989.00000
1310.73306	0.17866	0.66273	27432.03993	867.23944	18472.68697	1308.63806	0.66344	27196.00000	853.00000	18330.00000
1316.92742	0.18085	0.65940	28161.82657	892.73544	18873.95501	1314.82843	0.66085	27925.00000	899.00000	18759.00000
1323.12177	0.18476	0.65349	28842.74169	862.95220	19147.50223	1321.01880	0.65572	28606.00000	864.00000	19055.00000
1329.31613	0.19008	0.64553	29519.54369	871.94640	19364.89429	1327.20917	0.64849	29300.00000	874.00000	19308.00000
1335.51048	0.19681	0.63560	30183.25265	863.66515	19499.28745	1333.39954	0.63916	29944.00000	862.00000	19450.00000
1341.70484	0.20457	0.62436	30926.51890	893.32929	19644.67280	1339.58991	0.62832	30673.00000	881.00000	19600.00000
1347.89919	0.21323	0.61203	31587.63481	894.88004	19679.72814	1345.78028	0.61635	31380.00000	904.00000	19688.00000
1354.09355	0.22224	0.59946	32227.78710	859.30420	19663.28462	1351.97065	0.60368	31988.00000	867.00000	19654.00000
1360.28790	0.23059	0.58804	32929.95072	867.11433	19721.68967	1358.16102	0.59181	32704.00000	861.00000	19706.00000
1366.48226	0.23871	0.57715	33569.06337	866.55753	19740.78338	1364.35139	0.58097	33341.00000	873.00000	19736.00000
1372.67661	0.24745	0.56566	34261.83351	843.87902	19747.00075	1370.54176	0.56966	34024.00000	848.00000	19747.00000
1378.87097	0.25665	0.55380	34838.67465	870.52277	19682.14002	1376.73213	0.55795	34668.00000	855.00000	19721.00000
1385.06532	0.26690	0.54087	35121.03064	877.10458	19398.84684	1382.92250	0.54555	35059.00000	888.00000	19530.00000
1391.25968	0.27880	0.52626	35289.43299	872.38486	18984.56333	1389.11287	0.53149	35214.00000	858.00000	19118.00000
1397.45403	0.29339	0.50887	35460.60298	899.47130	18486.80263	1395.30324	0.51543	35427.00000	906.00000	18699.00000
1403.64839	0.31241	0.48707	35666.10671	869.36576	17817.74833	1401.49361	0.49508	35545.00000	870.00000	18037.00000
1409.84274	0.33506	0.46231	36323.03255	883.09719	17267.26497	1407.68398	0.47115	36050.00000	883.00000	17452.00000
1416.03710	0.35935	0.43717	37284.68636	884.03189	16797.28442	1413.87435	0.44578	36926.00000	879.00000	16948.00000
1422.23145	0.38246	0.41451	38329.42739	892.53935	16410.77212	1420.06472	0.42204	37970.00000	895.00000	16542.00000
1428.42581	0.40240	0.39591	39434.74114	878.71439	16143.15772	1426.25509	0.40190	39022.00000	881.00000	16210.00000
1434.62016	0.41804	0.38191	40575.07439	880.06733	16040.18571	1432.44546	0.38631	40203.00000	880.00000	16071.00000
1440.81452	0.42906	0.37234	41493.68414	879.47622	16001.82411	1438.63583	0.37521	41184.00000	879.00000	16002.00000
1447.00887	0.43593	0.36650	42510.04768	905.41306	16153.29533	1444.82620	0.36823	42113.00000	891.00000	16070.00000
1453.20323	0.44039	0.36275	43543.72896	892.86717	16364.61908	1451.01657	0.36394	43229.00000	914.00000	16314.00000
1459.39758	0.44314	0.36046	44405.02794	864.61268	16559.40801	1457.20694	0.36106	44070.00000	855.00000	16458.00000
1465.59194	0.44405	0.35970	45481.34063	906.97918	16940.54730	1463.39731	0.35987	45094.00000	903.00000	16806.00000
1471.78629	0.44400	0.35975	46480.51435	890.87025	17291.64709	1469.58768	0.35964	46150.00000	894.00000	17170.00000
1477.98065	0.44303	0.36056	47320.91755	868.50781	17617.12754	1475.77805	0.36018	47029.00000	883.00000	17504.00000
1484.17500	0.44108	0.36218	48225.65661	857.63729	18013.47589	1481.96842	0.36150	47881.00000	849.00000	17851.00000
1490.36935	0.43850	0.36433	49092.30051	893.89890	18453.97060	1488.15879	0.36356	48824.00000	887.00000	18315.00000
1496.56371	0.43577	0.36663	49778.04514	887.35808	18812.27668	1494.34916	0.36576	49521.00000	891.00000	18678.00000
1502.75806	0.43257	0.36934	50469.48096	863.36996	19185.02604	1500.53953	0.36833	50241.00000	875.00000	19058.00000
1508.95242	0.42898	0.37241	51158.04064	897.54966	19615.10195	1506.72990	0.37127	50884.00000	867.00000	19437.00000
1515.14677	0.42567	0.37526	51878.91086	902.58342	20031.62039	1512.92027	0.37433	51650.00000	933.00000	19918.00000
1521.34113	0.42260	0.37792	52577.57434	850.45197	20399.40558	1519.11064	0.37687	52288.00000	838.00000	20228.00000
1527.53548	0.41945	0.38067	53324.26188	911.75147	20863.70687	1525.30101	0.37980	53098.00000	907.00000	20729.00000
1533.72984	0.41714	0.38270	53919.19306	885.74627	21181.58698	1531.49138	0.38199	53680.00000	890.00000	21055.00000
1539.92419	0.41520	0.38441	54593.00479	874.24673	21524.28142	1537.68175	0.38386	54367.00000	884.00000	21414.00000
1546.11855	0.41375	0.38570	55208.54831	866.87961	21826.73922	1543.87212	0.38525	54973.00000	860.00000	21707.00000
1552.31290	0.41245	0.38686	55811.51925	888.84465	22136.06506	1550.06249	0.38646	55614.00000	887.00000	22037.00000
1558.50726	0.41132	0.38787	56431.29012	888.46797	22431.79096	1556.25286	0.38751	56172.00000	885.00000	22309.00000
1564.70161	0.41044	0.38865	57011.94896	890.80855	22702.20325	1562.44323	0.38842	56858.00000	895.00000	22632.00000
1570.89597	0.40958	0.38942	57413.89650	869.93991	22889.54970	1568.63360	0.38907	57231.00000	876.00000	22802.00000
1577.09032	0.40808	0.39077	57979.03512	879.44141	23192.30417	1574.82397	0.39023	57786.00000	871.00000	23081.00000
1583.28468	0.40609	0.39256	58450.11400	894.72676	23488.79926	1581.01434	0.39184	58279.00000	894.00000	23380.00000
1589.47903	0.40349	0.39492	58825.25008	895.18773	23772.71321	1587.20471	0.39398	58712.00000	892.00000	23672.00000
1595.67339	0.40013	0.39799	59146.72764	885.70009	24072.94382	1593.39508	0.39676	59009.00000	896.00000	23953.00000
1601.86774	0.39599	0.40180	59574.82387	893.37146	24471.71542	1599.58545	0.40033	59419.00000	877.00000	24313.00000
1608.06210	0.39146	0.40601	59920.72690	909.46488	24868.77030	1605.77582	0.40444	59809.00000	920.00000	24737.00000
1614.25645	0.38662	0.41056	60220.95853	887.30010	25247.53455	1611.96619	0.40881	60102.00000	882.00000	25092.00000
1620.45081	0.38170	0.41524	60438.83040	897.12192	25620.99484	1618.15656	0.41356	60391.00000	905.00000	25506.00000
1626.64516	0.37693	0.41983	60579.30309	884.35356	25946.02779	1624.34693	0.41807	60502.00000	878.00000	25805.00000
1632.83952	0.37214	0.42448	60848.95373	899.57786	26346.86981	1630.53730	0.42282	60754.00000	903.00000	26209.00000
1639.03387	0.36784	0.42871	60928.35809	870.27700	26617.34552	1636.72767	0.42715	60938.00000	879.00000	26533.00000
1645.22823	0.36374	0.43278	60778.06969	873.98452	26799.32786	1642.91804	0.43129	60849.00000	868.00000	26737.00000
1651.42258	0.35989	0.43662	59777.88214	914.49031	26615.30653	1649.10841	0.43521	60357.00000	896.00000	26774.00000
1657.61694	0.35664	0.43991	57642.70006	920.63108	25873.12228	1655.29878	0.43880	58452.00000	931.00000	26171.00000
1663.81129	0.35403	0.44256	56689.89176	898.36344	25590.18187	1661.48915	0.44158	56762.00000	897.00000	25566.00000
1670.00565	0.35169	0.44495	55553.85124	917.06266	25226.87623	1667.67952	0.44412	56404.00000	914.00000	25558.00000
1676.20000	0.35009	0.44659	52318.47966	879.24303	23852.14832	1673.86989	0.44608	53497.00000	901.00000	24363.00000
0.00000	0.00000	0.00000	0.00000	0.00000	0.00000	1680.06026	0.44728	50136.00000	860.00000	22900.00000
0.00000	0.00000	0.00000	0.00000	0.00000	0.00000	1686.25063	0.44811	46019.00000	923.00000	21131.00000
0.00000	0.00000	0.00000	0.00000	0.00000	0.00000	1692.44100	0.44811	46019.00000	923.00000	21131.00000
